Model,MSO2024B
Firmware Version,1.56

Point Format,Y
Horizontal Units,Hz
Horizontal Scale,130200
Sample Interval,260.4
Filter Frequency,2e+08
Record Length,5000
Gating,0.0% to 100.0%
Probe Attenuation,1
Vertical Units,NONE
Vertical Offset,0
Vertical Scale,20
Label,
TIME,MATH
0.0000e+00,-46.0219
2.6040e+02,-44.1281
5.2080e+02,-42.2344
7.8120e+02,-47.5906
1.0416e+03,-52.9438
1.3020e+03,-55.0187
1.5624e+03,-57.0938
1.8228e+03,-54.3125
2.0832e+03,-51.5312
2.3436e+03,-52.8062
2.6040e+03,-54.0812
2.8644e+03,-52.5781
3.1248e+03,-51.0719
3.3852e+03,-52.0094
3.6456e+03,-52.9438
3.9060e+03,-52.9438
4.1664e+03,-52.9438
4.4268e+03,-52.9438
4.6872e+03,-52.9438
4.9476e+03,-52.9438
5.2080e+03,-52.9438
5.4684e+03,-53.5125
5.7288e+03,-54.0812
5.9892e+03,-53.5125
6.2496e+03,-52.9438
6.5100e+03,-50.5031
6.7704e+03,-48.0625
7.0308e+03,-47.0094
7.2912e+03,-45.9531
7.5516e+03,-40.1875
7.8120e+03,-34.4219
8.0724e+03,-32.625
8.3328e+03,-30.8281
8.5932e+03,-22.775
8.8536e+03,-14.7188
9.1140e+03,-16.5469
9.3744e+03,-18.375
9.6348e+03,-11.0656
9.8952e+03,-3.75312
1.0156e+04,-4.69062
1.0416e+04,-5.625
1.0676e+04,-9.7375
1.0937e+04,-13.8469
1.1197e+04,-16.4844
1.1458e+04,-19.1219
1.1718e+04,-25.4562
1.1978e+04,-31.7906
1.2239e+04,-35.0031
1.2499e+04,-38.2156
1.2760e+04,-49.6437
1.3020e+04,-61.0719
1.3280e+04,-58.0625
1.3541e+04,-55.0531
1.3801e+04,-55.0531
1.4062e+04,-55.0531
1.4322e+04,-56.075
1.4582e+04,-57.0938
1.4843e+04,-56.075
1.5103e+04,-55.0531
1.5364e+04,-54
1.5624e+04,-52.9438
1.5884e+04,-53.5125
1.6145e+04,-54.0812
1.6405e+04,-55.5875
1.6666e+04,-57.0938
1.6926e+04,-56.075
1.7186e+04,-55.0531
1.7447e+04,-55.0531
1.7707e+04,-55.0531
1.7968e+04,-58.0625
1.8228e+04,-61.0719
1.8488e+04,-58.0625
1.8749e+04,-55.0531
1.9009e+04,-54
1.9270e+04,-52.9438
1.9530e+04,-52.0094
1.9790e+04,-51.0719
2.0051e+04,-54.5688
2.0311e+04,-58.0625
2.0572e+04,-55.5031
2.0832e+04,-52.9438
2.1092e+04,-55.0187
2.1353e+04,-57.0938
2.1613e+04,-59.0844
2.1874e+04,-61.0719
2.2134e+04,-59.0844
2.2394e+04,-57.0938
2.2655e+04,-55.5875
2.2915e+04,-54.0812
2.3176e+04,-55.5875
2.3436e+04,-57.0938
2.3696e+04,-56.075
2.3957e+04,-55.0531
2.4217e+04,-55.0531
2.4478e+04,-55.0531
2.4738e+04,-55.0531
2.4998e+04,-55.0531
2.5259e+04,-58.0625
2.5519e+04,-61.0719
2.5780e+04,-58.0625
2.6040e+04,-55.0531
2.6300e+04,-55.0531
2.6561e+04,-55.0531
2.6821e+04,-56.075
2.7082e+04,-57.0938
2.7342e+04,-57.0938
2.7602e+04,-57.0938
2.7863e+04,-57.0938
2.8123e+04,-57.0938
2.8384e+04,-56.075
2.8644e+04,-55.0531
2.8904e+04,-56.075
2.9165e+04,-57.0938
2.9425e+04,-55.0187
2.9686e+04,-52.9438
2.9946e+04,-54
3.0206e+04,-55.0531
3.0467e+04,-55.0531
3.0727e+04,-55.0531
3.0988e+04,-54
3.1248e+04,-52.9438
3.1508e+04,-57.0094
3.1769e+04,-61.0719
3.2029e+04,-58.0625
3.2290e+04,-55.0531
3.2550e+04,-58.0625
3.2810e+04,-61.0719
3.3071e+04,-57.0094
3.3331e+04,-52.9438
3.3592e+04,-55.0187
3.3852e+04,-57.0938
3.4112e+04,-59.0844
3.4373e+04,-61.0719
3.4633e+04,-57.0094
3.4894e+04,-52.9438
3.5154e+04,-57.0094
3.5414e+04,-61.0719
3.5675e+04,-58.0625
3.5935e+04,-55.0531
3.6196e+04,-58.0625
3.6456e+04,-61.0719
3.6716e+04,-58.0625
3.6977e+04,-55.0531
3.7237e+04,-56.075
3.7498e+04,-57.0938
3.7758e+04,-59.0844
3.8018e+04,-61.0719
3.8279e+04,-57.5781
3.8539e+04,-54.0812
3.8800e+04,-54.0812
3.9060e+04,-54.0812
3.9320e+04,-57.5781
3.9581e+04,-61.0719
3.9841e+04,-59.0844
4.0102e+04,-57.0938
4.0362e+04,-55.0187
4.0622e+04,-52.9438
4.0883e+04,-58.5125
4.1143e+04,-64.0812
4.1404e+04,-58.5125
4.1664e+04,-52.9438
4.1924e+04,-55.5031
4.2185e+04,-58.0625
4.2445e+04,-56.0719
4.2706e+04,-54.0812
4.2966e+04,-55.5875
4.3226e+04,-57.0938
4.3487e+04,-57.0938
4.3747e+04,-57.0938
4.4008e+04,-57.0938
4.4268e+04,-57.0938
4.4528e+04,-56.075
4.4789e+04,-55.0531
4.5049e+04,-56.075
4.5310e+04,-57.0938
4.5570e+04,-56.075
4.5830e+04,-55.0531
4.6091e+04,-58.0625
4.6351e+04,-61.0719
4.6612e+04,-58.0625
4.6872e+04,-55.0531
4.7132e+04,-56.075
4.7393e+04,-57.0938
4.7653e+04,-57.0938
4.7914e+04,-57.0938
4.8174e+04,-57.0938
4.8434e+04,-57.0938
4.8695e+04,-59.0844
4.8955e+04,-61.0719
4.9216e+04,-59.0844
4.9476e+04,-57.0938
4.9736e+04,-56.075
4.9997e+04,-55.0531
5.0257e+04,-55.0531
5.0518e+04,-55.0531
5.0778e+04,-56.075
5.1038e+04,-57.0938
5.1299e+04,-59.0844
5.1559e+04,-61.0719
5.1820e+04,-59.0844
5.2080e+04,-57.0938
5.2340e+04,-57.0938
5.2601e+04,-57.0938
5.2861e+04,-56.075
5.3122e+04,-55.0531
5.3382e+04,-58.0625
5.3642e+04,-61.0719
5.3903e+04,-59.0844
5.4163e+04,-57.0938
5.4424e+04,-59.0844
5.4684e+04,-61.0719
5.4944e+04,-59.0844
5.5205e+04,-57.0938
5.5465e+04,-57.0938
5.5726e+04,-57.0938
5.5986e+04,-56.075
5.6246e+04,-55.0531
5.6507e+04,-56.075
5.6767e+04,-57.0938
5.7028e+04,-56.075
5.7288e+04,-55.0531
5.7548e+04,-56.075
5.7809e+04,-57.0938
5.8069e+04,-55.0187
5.8330e+04,-52.9438
5.8590e+04,-57.0094
5.8850e+04,-61.0719
5.9111e+04,-59.0844
5.9371e+04,-57.0938
5.9632e+04,-56.075
5.9892e+04,-55.0531
6.0152e+04,-56.075
6.0413e+04,-57.0938
6.0673e+04,-56.075
6.0934e+04,-55.0531
6.1194e+04,-55.0531
6.1454e+04,-55.0531
6.1715e+04,-59.5688
6.1975e+04,-64.0812
6.2236e+04,-59.5688
6.2496e+04,-55.0531
6.2756e+04,-56.075
6.3017e+04,-57.0938
6.3277e+04,-56.075
6.3538e+04,-55.0531
6.3798e+04,-59.5688
6.4058e+04,-64.0812
6.4319e+04,-59.5688
6.4579e+04,-55.0531
6.4840e+04,-55.0531
6.5100e+04,-55.0531
6.5360e+04,-58.0625
6.5621e+04,-61.0719
6.5881e+04,-59.5688
6.6142e+04,-58.0625
6.6402e+04,-56.5594
6.6662e+04,-55.0531
6.6923e+04,-56.075
6.7183e+04,-57.0938
6.7444e+04,-57.0938
6.7704e+04,-57.0938
6.7964e+04,-55.5875
6.8225e+04,-54.0812
6.8485e+04,-55.5875
6.8746e+04,-57.0938
6.9006e+04,-57.0938
6.9266e+04,-57.0938
6.9527e+04,-56.075
6.9787e+04,-55.0531
7.0048e+04,-54
7.0308e+04,-52.9438
7.0568e+04,-57.0094
7.0829e+04,-61.0719
7.1089e+04,-61.0719
7.1350e+04,-61.0719
7.1610e+04,-57.0094
7.1870e+04,-52.9438
7.2131e+04,-55.0187
7.2391e+04,-57.0938
7.2652e+04,-57.0938
7.2912e+04,-57.0938
7.3172e+04,-57.0938
7.3433e+04,-57.0938
7.3693e+04,-55.0187
7.3954e+04,-52.9438
7.4214e+04,-55.0187
7.4474e+04,-57.0938
7.4735e+04,-57.0938
7.4995e+04,-57.0938
7.5256e+04,-55.0187
7.5516e+04,-52.9438
7.5776e+04,-54
7.6037e+04,-55.0531
7.6297e+04,-58.0625
7.6558e+04,-61.0719
7.6818e+04,-58.0625
7.7078e+04,-55.0531
7.7339e+04,-54.5688
7.7599e+04,-54.0812
7.7860e+04,-57.5781
7.8120e+04,-61.0719
7.8380e+04,-58.0625
7.8641e+04,-55.0531
7.8901e+04,-58.0625
7.9162e+04,-61.0719
7.9422e+04,-57.5781
7.9682e+04,-54.0812
7.9943e+04,-55.5875
8.0203e+04,-57.0938
8.0464e+04,-57.0938
8.0724e+04,-57.0938
8.0984e+04,-59.0844
8.1245e+04,-61.0719
8.1505e+04,-57.0094
8.1766e+04,-52.9438
8.2026e+04,-55.0187
8.2286e+04,-57.0938
8.2547e+04,-57.0938
8.2807e+04,-57.0938
8.3068e+04,-56.075
8.3328e+04,-55.0531
8.3588e+04,-55.0531
8.3849e+04,-55.0531
8.4109e+04,-58.0625
8.4370e+04,-61.0719
8.4630e+04,-59.0844
8.4890e+04,-57.0938
8.5151e+04,-60.5875
8.5411e+04,-64.0812
8.5672e+04,-59.5688
8.5932e+04,-55.0531
8.6192e+04,-54.5688
8.6453e+04,-54.0812
8.6713e+04,-57.5781
8.6974e+04,-61.0719
8.7234e+04,-58.0625
8.7494e+04,-55.0531
8.7755e+04,-56.075
8.8015e+04,-57.0938
8.8276e+04,-57.0938
8.8536e+04,-57.0938
8.8796e+04,-57.0938
8.9057e+04,-57.0938
8.9317e+04,-57.0938
8.9578e+04,-57.0938
8.9838e+04,-56.075
9.0098e+04,-55.0531
9.0359e+04,-56.075
9.0619e+04,-57.0938
9.0880e+04,-57.0938
9.1140e+04,-57.0938
9.1400e+04,-59.0844
9.1661e+04,-61.0719
9.1921e+04,-56.0719
9.2182e+04,-51.0719
9.2442e+04,-56.0719
9.2702e+04,-61.0719
9.2963e+04,-57.0094
9.3223e+04,-52.9438
9.3484e+04,-57.0094
9.3744e+04,-61.0719
9.4004e+04,-58.0625
9.4265e+04,-55.0531
9.4525e+04,-55.0531
9.4786e+04,-55.0531
9.5046e+04,-55.0531
9.5306e+04,-55.0531
9.5567e+04,-56.075
9.5827e+04,-57.0938
9.6088e+04,-56.075
9.6348e+04,-55.0531
9.6608e+04,-56.075
9.6869e+04,-57.0938
9.7129e+04,-56.075
9.7390e+04,-55.0531
9.7650e+04,-56.075
9.7910e+04,-57.0938
9.8171e+04,-55.0187
9.8431e+04,-52.9438
9.8692e+04,-57.0094
9.8952e+04,-61.0719
9.9212e+04,-58.0625
9.9473e+04,-55.0531
9.9733e+04,-54
9.9994e+04,-52.9438
1.0025e+05,-57.0094
1.0051e+05,-61.0719
1.0077e+05,-61.0719
1.0104e+05,-61.0719
1.0130e+05,-57.0094
1.0156e+05,-52.9438
1.0182e+05,-55.5031
1.0208e+05,-58.0625
1.0234e+05,-56.5594
1.0260e+05,-55.0531
1.0286e+05,-56.075
1.0312e+05,-57.0938
1.0338e+05,-56.075
1.0364e+05,-55.0531
1.0390e+05,-59.5688
1.0416e+05,-64.0812
1.0442e+05,-59.5688
1.0468e+05,-55.0531
1.0494e+05,-56.075
1.0520e+05,-57.0938
1.0546e+05,-57.0938
1.0572e+05,-57.0938
1.0598e+05,-59.0844
1.0624e+05,-61.0719
1.0650e+05,-58.0625
1.0676e+05,-55.0531
1.0702e+05,-56.075
1.0728e+05,-57.0938
1.0755e+05,-55.5875
1.0781e+05,-54.0812
1.0807e+05,-54.3125
1.0833e+05,-54.5406
1.0859e+05,-55.8188
1.0885e+05,-57.0938
1.0911e+05,-57.0938
1.0937e+05,-57.0938
1.0963e+05,-57.0938
1.0989e+05,-57.0938
1.1015e+05,-57.0938
1.1041e+05,-57.0938
1.1067e+05,-57.0938
1.1093e+05,-57.0938
1.1119e+05,-57.0938
1.1145e+05,-57.0938
1.1171e+05,-55.5875
1.1197e+05,-54.0812
1.1223e+05,-55.5875
1.1249e+05,-57.0938
1.1275e+05,-56.075
1.1301e+05,-55.0531
1.1327e+05,-58.0625
1.1353e+05,-61.0719
1.1379e+05,-59.0844
1.1406e+05,-57.0938
1.1432e+05,-57.0938
1.1458e+05,-57.0938
1.1484e+05,-57.5781
1.1510e+05,-58.0625
1.1536e+05,-59.5688
1.1562e+05,-61.0719
1.1588e+05,-61.0719
1.1614e+05,-61.0719
1.1640e+05,-58.0625
1.1666e+05,-55.0531
1.1692e+05,-56.075
1.1718e+05,-57.0938
1.1744e+05,-59.0844
1.1770e+05,-61.0719
1.1796e+05,-58.0625
1.1822e+05,-55.0531
1.1848e+05,-58.0625
1.1874e+05,-61.0719
1.1900e+05,-61.0719
1.1926e+05,-61.0719
1.1952e+05,-61.0719
1.1978e+05,-61.0719
1.2004e+05,-59.0844
1.2030e+05,-57.0938
1.2057e+05,-55.0187
1.2083e+05,-52.9438
1.2109e+05,-55.0187
1.2135e+05,-57.0938
1.2161e+05,-59.0844
1.2187e+05,-61.0719
1.2213e+05,-61.0719
1.2239e+05,-61.0719
1.2265e+05,-61.0719
1.2291e+05,-61.0719
1.2317e+05,-58.0625
1.2343e+05,-55.0531
1.2369e+05,-59.5688
1.2395e+05,-64.0812
1.2421e+05,-59.5688
1.2447e+05,-55.0531
1.2473e+05,-56.075
1.2499e+05,-57.0938
1.2525e+05,-57.0938
1.2551e+05,-57.0938
1.2577e+05,-57.0938
1.2603e+05,-57.0938
1.2629e+05,-59.0844
1.2655e+05,-61.0719
1.2681e+05,-61.0719
1.2708e+05,-61.0719
1.2734e+05,-59.0844
1.2760e+05,-57.0938
1.2786e+05,-55.5875
1.2812e+05,-54.0812
1.2838e+05,-57.5781
1.2864e+05,-61.0719
1.2890e+05,-58.0625
1.2916e+05,-55.0531
1.2942e+05,-58.0625
1.2968e+05,-61.0719
1.2994e+05,-61.0719
1.3020e+05,-61.0719
1.3046e+05,-61.0719
1.3072e+05,-61.0719
1.3098e+05,-58.0625
1.3124e+05,-55.0531
1.3150e+05,-58.0625
1.3176e+05,-61.0719
1.3202e+05,-57.0094
1.3228e+05,-52.9438
1.3254e+05,-57.0094
1.3280e+05,-61.0719
1.3306e+05,-61.0719
1.3332e+05,-61.0719
1.3359e+05,-58.0625
1.3385e+05,-55.0531
1.3411e+05,-56.075
1.3437e+05,-57.0938
1.3463e+05,-57.5781
1.3489e+05,-58.0625
1.3515e+05,-55.5031
1.3541e+05,-52.9438
1.3567e+05,-58.5125
1.3593e+05,-64.0812
1.3619e+05,-62.5781
1.3645e+05,-61.0719
1.3671e+05,-57.0094
1.3697e+05,-52.9438
1.3723e+05,-57.0094
1.3749e+05,-61.0719
1.3775e+05,-57.0094
1.3801e+05,-52.9438
1.3827e+05,-57.0094
1.3853e+05,-61.0719
1.3879e+05,-57.5781
1.3905e+05,-54.0812
1.3931e+05,-59.0812
1.3957e+05,-64.0812
1.3983e+05,-59.5688
1.4010e+05,-55.0531
1.4036e+05,-58.0625
1.4062e+05,-61.0719
1.4088e+05,-61.0719
1.4114e+05,-61.0719
1.4140e+05,-61.0719
1.4166e+05,-61.0719
1.4192e+05,-58.0625
1.4218e+05,-55.0531
1.4244e+05,-58.0625
1.4270e+05,-61.0719
1.4296e+05,-61.0719
1.4322e+05,-61.0719
1.4348e+05,-59.0844
1.4374e+05,-57.0938
1.4400e+05,-57.0938
1.4426e+05,-57.0938
1.4452e+05,-57.0938
1.4478e+05,-57.0938
1.4504e+05,-60.5875
1.4530e+05,-64.0812
1.4556e+05,-59.5688
1.4582e+05,-55.0531
1.4608e+05,-58.0625
1.4634e+05,-61.0719
1.4661e+05,-61.0719
1.4687e+05,-61.0719
1.4713e+05,-59.0844
1.4739e+05,-57.0938
1.4765e+05,-55.0187
1.4791e+05,-52.9438
1.4817e+05,-57.0094
1.4843e+05,-61.0719
1.4869e+05,-58.0625
1.4895e+05,-55.0531
1.4921e+05,-56.075
1.4947e+05,-57.0938
1.4973e+05,-57.0938
1.4999e+05,-57.0938
1.5025e+05,-56.075
1.5051e+05,-55.0531
1.5077e+05,-55.0531
1.5103e+05,-55.0531
1.5129e+05,-58.0625
1.5155e+05,-61.0719
1.5181e+05,-61.0719
1.5207e+05,-61.0719
1.5233e+05,-61.0719
1.5259e+05,-61.0719
1.5285e+05,-59.0844
1.5312e+05,-57.0938
1.5338e+05,-59.0844
1.5364e+05,-61.0719
1.5390e+05,-59.0844
1.5416e+05,-57.0938
1.5442e+05,-57.0938
1.5468e+05,-57.0938
1.5494e+05,-59.0844
1.5520e+05,-61.0719
1.5546e+05,-59.0844
1.5572e+05,-57.0938
1.5598e+05,-59.0844
1.5624e+05,-61.0719
1.5650e+05,-59.0844
1.5676e+05,-57.0938
1.5702e+05,-56.075
1.5728e+05,-55.0531
1.5754e+05,-58.0625
1.5780e+05,-61.0719
1.5806e+05,-58.0625
1.5832e+05,-55.0531
1.5858e+05,-59.5688
1.5884e+05,-64.0812
1.5910e+05,-62.5781
1.5936e+05,-61.0719
1.5963e+05,-58.0625
1.5989e+05,-55.0531
1.6015e+05,-55.0531
1.6041e+05,-55.0531
1.6067e+05,-56.075
1.6093e+05,-57.0938
1.6119e+05,-57.0938
1.6145e+05,-57.0938
1.6171e+05,-57.0938
1.6197e+05,-57.0938
1.6223e+05,-57.0938
1.6249e+05,-57.0938
1.6275e+05,-59.0844
1.6301e+05,-61.0719
1.6327e+05,-58.0625
1.6353e+05,-55.0531
1.6379e+05,-58.0625
1.6405e+05,-61.0719
1.6431e+05,-61.0719
1.6457e+05,-61.0719
1.6483e+05,-62.5781
1.6509e+05,-64.0812
1.6535e+05,-60.5875
1.6561e+05,-57.0938
1.6587e+05,-57.0938
1.6614e+05,-57.0938
1.6640e+05,-59.0844
1.6666e+05,-61.0719
1.6692e+05,-59.0844
1.6718e+05,-57.0938
1.6744e+05,-56.075
1.6770e+05,-55.0531
1.6796e+05,-56.075
1.6822e+05,-57.0938
1.6848e+05,-59.0844
1.6874e+05,-61.0719
1.6900e+05,-58.0625
1.6926e+05,-55.0531
1.6952e+05,-58.0625
1.6978e+05,-61.0719
1.7004e+05,-59.0844
1.7030e+05,-57.0938
1.7056e+05,-59.0844
1.7082e+05,-61.0719
1.7108e+05,-59.0844
1.7134e+05,-57.0938
1.7160e+05,-57.0938
1.7186e+05,-57.0938
1.7212e+05,-57.5781
1.7238e+05,-58.0625
1.7265e+05,-59.5688
1.7291e+05,-61.0719
1.7317e+05,-58.0625
1.7343e+05,-55.0531
1.7369e+05,-58.0625
1.7395e+05,-61.0719
1.7421e+05,-59.0844
1.7447e+05,-57.0938
1.7473e+05,-56.075
1.7499e+05,-55.0531
1.7525e+05,-58.0625
1.7551e+05,-61.0719
1.7577e+05,-59.0844
1.7603e+05,-57.0938
1.7629e+05,-59.0844
1.7655e+05,-61.0719
1.7681e+05,-59.0844
1.7707e+05,-57.0938
1.7733e+05,-57.0938
1.7759e+05,-57.0938
1.7785e+05,-57.0938
1.7811e+05,-57.0938
1.7837e+05,-60.5875
1.7863e+05,-64.0812
1.7889e+05,-60.5875
1.7916e+05,-57.0938
1.7942e+05,-59.0844
1.7968e+05,-61.0719
1.7994e+05,-58.0625
1.8020e+05,-55.0531
1.8046e+05,-59.5688
1.8072e+05,-64.0812
1.8098e+05,-60.5875
1.8124e+05,-57.0938
1.8150e+05,-57.5781
1.8176e+05,-58.0625
1.8202e+05,-58.0625
1.8228e+05,-58.0625
1.8254e+05,-57.5781
1.8280e+05,-57.0938
1.8306e+05,-59.0844
1.8332e+05,-61.0719
1.8358e+05,-58.0625
1.8384e+05,-55.0531
1.8410e+05,-56.075
1.8436e+05,-57.0938
1.8462e+05,-57.0938
1.8488e+05,-57.0938
1.8514e+05,-57.0938
1.8540e+05,-57.0938
1.8567e+05,-57.0938
1.8593e+05,-57.0938
1.8619e+05,-56.075
1.8645e+05,-55.0531
1.8671e+05,-56.075
1.8697e+05,-57.0938
1.8723e+05,-57.0938
1.8749e+05,-57.0938
1.8775e+05,-57.0938
1.8801e+05,-57.0938
1.8827e+05,-57.0938
1.8853e+05,-57.0938
1.8879e+05,-59.0844
1.8905e+05,-61.0719
1.8931e+05,-59.0844
1.8957e+05,-57.0938
1.8983e+05,-59.0844
1.9009e+05,-61.0719
1.9035e+05,-58.0625
1.9061e+05,-55.0531
1.9087e+05,-59.5688
1.9113e+05,-64.0812
1.9139e+05,-59.5688
1.9165e+05,-55.0531
1.9191e+05,-59.5688
1.9218e+05,-64.0812
1.9244e+05,-60.5875
1.9270e+05,-57.0938
1.9296e+05,-59.0844
1.9322e+05,-61.0719
1.9348e+05,-58.0625
1.9374e+05,-55.0531
1.9400e+05,-58.0625
1.9426e+05,-61.0719
1.9452e+05,-59.0844
1.9478e+05,-57.0938
1.9504e+05,-59.0844
1.9530e+05,-61.0719
1.9556e+05,-62.5781
1.9582e+05,-64.0812
1.9608e+05,-60.5875
1.9634e+05,-57.0938
1.9660e+05,-57.0938
1.9686e+05,-57.0938
1.9712e+05,-57.5781
1.9738e+05,-58.0625
1.9764e+05,-57.5781
1.9790e+05,-57.0938
1.9816e+05,-57.0938
1.9842e+05,-57.0938
1.9869e+05,-56.075
1.9895e+05,-55.0531
1.9921e+05,-56.5594
1.9947e+05,-58.0625
1.9973e+05,-57.5781
1.9999e+05,-57.0938
2.0025e+05,-57.0938
2.0051e+05,-57.0938
2.0077e+05,-59.0844
2.0103e+05,-61.0719
2.0129e+05,-59.0844
2.0155e+05,-57.0938
2.0181e+05,-59.0844
2.0207e+05,-61.0719
2.0233e+05,-61.0719
2.0259e+05,-61.0719
2.0285e+05,-59.0844
2.0311e+05,-57.0938
2.0337e+05,-56.075
2.0363e+05,-55.0531
2.0389e+05,-58.0625
2.0415e+05,-61.0719
2.0441e+05,-61.0719
2.0467e+05,-61.0719
2.0493e+05,-61.0719
2.0520e+05,-61.0719
2.0546e+05,-61.0719
2.0572e+05,-61.0719
2.0598e+05,-61.0719
2.0624e+05,-61.0719
2.0650e+05,-59.0844
2.0676e+05,-57.0938
2.0702e+05,-59.0844
2.0728e+05,-61.0719
2.0754e+05,-61.0719
2.0780e+05,-61.0719
2.0806e+05,-58.0625
2.0832e+05,-55.0531
2.0858e+05,-59.5688
2.0884e+05,-64.0812
2.0910e+05,-60.5875
2.0936e+05,-57.0938
2.0962e+05,-57.0938
2.0988e+05,-57.0938
2.1014e+05,-57.5781
2.1040e+05,-58.0625
2.1066e+05,-59.5688
2.1092e+05,-61.0719
2.1118e+05,-59.0844
2.1144e+05,-57.0938
2.1171e+05,-57.0938
2.1197e+05,-57.0938
2.1223e+05,-56.075
2.1249e+05,-55.0531
2.1275e+05,-58.0625
2.1301e+05,-61.0719
2.1327e+05,-57.5781
2.1353e+05,-54.0812
2.1379e+05,-55.5875
2.1405e+05,-57.0938
2.1431e+05,-57.0938
2.1457e+05,-57.0938
2.1483e+05,-56.075
2.1509e+05,-55.0531
2.1535e+05,-55.0531
2.1561e+05,-55.0531
2.1587e+05,-58.0625
2.1613e+05,-61.0719
2.1639e+05,-62.5781
2.1665e+05,-64.0812
2.1691e+05,-60.5875
2.1717e+05,-57.0938
2.1743e+05,-59.0844
2.1769e+05,-61.0719
2.1795e+05,-59.0844
2.1822e+05,-57.0938
2.1848e+05,-59.0844
2.1874e+05,-61.0719
2.1900e+05,-61.0719
2.1926e+05,-61.0719
2.1952e+05,-59.5688
2.1978e+05,-58.0625
2.2004e+05,-57.5781
2.2030e+05,-57.0938
2.2056e+05,-57.0938
2.2082e+05,-57.0938
2.2108e+05,-57.0938
2.2134e+05,-57.0938
2.2160e+05,-57.0938
2.2186e+05,-57.0938
2.2212e+05,-59.0844
2.2238e+05,-61.0719
2.2264e+05,-62.5781
2.2290e+05,-64.0812
2.2316e+05,-62.5781
2.2342e+05,-61.0719
2.2368e+05,-61.0719
2.2394e+05,-61.0719
2.2420e+05,-59.0844
2.2446e+05,-57.0938
2.2473e+05,-59.0844
2.2499e+05,-61.0719
2.2525e+05,-59.0844
2.2551e+05,-57.0938
2.2577e+05,-59.0844
2.2603e+05,-61.0719
2.2629e+05,-61.0719
2.2655e+05,-61.0719
2.2681e+05,-61.0719
2.2707e+05,-61.0719
2.2733e+05,-59.0844
2.2759e+05,-57.0938
2.2785e+05,-59.0844
2.2811e+05,-61.0719
2.2837e+05,-59.0844
2.2863e+05,-57.0938
2.2889e+05,-60.5875
2.2915e+05,-64.0812
2.2941e+05,-60.5875
2.2967e+05,-57.0938
2.2993e+05,-57.0938
2.3019e+05,-57.0938
2.3045e+05,-59.0844
2.3071e+05,-61.0719
2.3097e+05,-61.0719
2.3124e+05,-61.0719
2.3150e+05,-59.5688
2.3176e+05,-58.0625
2.3202e+05,-57.5781
2.3228e+05,-57.0938
2.3254e+05,-59.0844
2.3280e+05,-61.0719
2.3306e+05,-61.0719
2.3332e+05,-61.0719
2.3358e+05,-59.0844
2.3384e+05,-57.0938
2.3410e+05,-59.0844
2.3436e+05,-61.0719
2.3462e+05,-61.0719
2.3488e+05,-61.0719
2.3514e+05,-61.0719
2.3540e+05,-61.0719
2.3566e+05,-59.0844
2.3592e+05,-57.0938
2.3618e+05,-59.0844
2.3644e+05,-61.0719
2.3670e+05,-61.0719
2.3696e+05,-61.0719
2.3722e+05,-62.5781
2.3748e+05,-64.0812
2.3775e+05,-60.5875
2.3801e+05,-57.0938
2.3827e+05,-60.5875
2.3853e+05,-64.0812
2.3879e+05,-58.5125
2.3905e+05,-52.9438
2.3931e+05,-57.0094
2.3957e+05,-61.0719
2.3983e+05,-61.0719
2.4009e+05,-61.0719
2.4035e+05,-61.0719
2.4061e+05,-61.0719
2.4087e+05,-61.0719
2.4113e+05,-61.0719
2.4139e+05,-59.0844
2.4165e+05,-57.0938
2.4191e+05,-60.5875
2.4217e+05,-64.0812
2.4243e+05,-62.5781
2.4269e+05,-61.0719
2.4295e+05,-62.5781
2.4321e+05,-64.0812
2.4347e+05,-60.5875
2.4373e+05,-57.0938
2.4399e+05,-59.0844
2.4426e+05,-61.0719
2.4452e+05,-61.0719
2.4478e+05,-61.0719
2.4504e+05,-61.0719
2.4530e+05,-61.0719
2.4556e+05,-62.5781
2.4582e+05,-64.0812
2.4608e+05,-62.5781
2.4634e+05,-61.0719
2.4660e+05,-61.0719
2.4686e+05,-61.0719
2.4712e+05,-62.5781
2.4738e+05,-64.0812
2.4764e+05,-60.5875
2.4790e+05,-57.0938
2.4816e+05,-59.0844
2.4842e+05,-61.0719
2.4868e+05,-61.0719
2.4894e+05,-61.0719
2.4920e+05,-58.0625
2.4946e+05,-55.0531
2.4972e+05,-59.5688
2.4998e+05,-64.0812
2.5024e+05,-62.5781
2.5050e+05,-61.0719
2.5077e+05,-59.5688
2.5103e+05,-58.0625
2.5129e+05,-59.5688
2.5155e+05,-61.0719
2.5181e+05,-61.0719
2.5207e+05,-61.0719
2.5233e+05,-61.0719
2.5259e+05,-61.0719
2.5285e+05,-58.0625
2.5311e+05,-55.0531
2.5337e+05,-56.5594
2.5363e+05,-58.0625
2.5389e+05,-61.0719
2.5415e+05,-64.0812
2.5441e+05,-62.5781
2.5467e+05,-61.0719
2.5493e+05,-61.0719
2.5519e+05,-61.0719
2.5545e+05,-62.5781
2.5571e+05,-64.0812
2.5597e+05,-62.5781
2.5623e+05,-61.0719
2.5649e+05,-59.0844
2.5675e+05,-57.0938
2.5701e+05,-59.0844
2.5728e+05,-61.0719
2.5754e+05,-62.5781
2.5780e+05,-64.0812
2.5806e+05,-59.3125
2.5832e+05,-54.5406
2.5858e+05,-59.3125
2.5884e+05,-64.0812
2.5910e+05,-62.5781
2.5936e+05,-61.0719
2.5962e+05,-59.0844
2.5988e+05,-57.0938
2.6014e+05,-59.0844
2.6040e+05,-61.0719
2.6066e+05,-61.0719
2.6092e+05,-61.0719
2.6118e+05,-62.5781
2.6144e+05,-64.0812
2.6170e+05,-60.5875
2.6196e+05,-57.0938
2.6222e+05,-57.5781
2.6248e+05,-58.0625
2.6274e+05,-61.0719
2.6300e+05,-64.0812
2.6326e+05,-59.5688
2.6352e+05,-55.0531
2.6379e+05,-59.5688
2.6405e+05,-64.0812
2.6431e+05,-62.5781
2.6457e+05,-61.0719
2.6483e+05,-62.5781
2.6509e+05,-64.0812
2.6535e+05,-62.5781
2.6561e+05,-61.0719
2.6587e+05,-61.0719
2.6613e+05,-61.0719
2.6639e+05,-61.0719
2.6665e+05,-61.0719
2.6691e+05,-61.0719
2.6717e+05,-61.0719
2.6743e+05,-62.5781
2.6769e+05,-64.0812
2.6795e+05,-59.5688
2.6821e+05,-55.0531
2.6847e+05,-59.5688
2.6873e+05,-64.0812
2.6899e+05,-62.5781
2.6925e+05,-61.0719
2.6951e+05,-61.0719
2.6977e+05,-61.0719
2.7003e+05,-62.5781
2.7030e+05,-64.0812
2.7056e+05,-62.5781
2.7082e+05,-61.0719
2.7108e+05,-62.5781
2.7134e+05,-64.0812
2.7160e+05,-60.5875
2.7186e+05,-57.0938
2.7212e+05,-60.5875
2.7238e+05,-64.0812
2.7264e+05,-64.0812
2.7290e+05,-64.0812
2.7316e+05,-62.5781
2.7342e+05,-61.0719
2.7368e+05,-59.0844
2.7394e+05,-57.0938
2.7420e+05,-59.0844
2.7446e+05,-61.0719
2.7472e+05,-59.0844
2.7498e+05,-57.0938
2.7524e+05,-59.0844
2.7550e+05,-61.0719
2.7576e+05,-62.5781
2.7602e+05,-64.0812
2.7628e+05,-61.0719
2.7654e+05,-58.0625
2.7681e+05,-59.5688
2.7707e+05,-61.0719
2.7733e+05,-62.5781
2.7759e+05,-64.0812
2.7785e+05,-64.0812
2.7811e+05,-64.0812
2.7837e+05,-59.5688
2.7863e+05,-55.0531
2.7889e+05,-58.0625
2.7915e+05,-61.0719
2.7941e+05,-61.0719
2.7967e+05,-61.0719
2.7993e+05,-59.0844
2.8019e+05,-57.0938
2.8045e+05,-59.0844
2.8071e+05,-61.0719
2.8097e+05,-59.5688
2.8123e+05,-58.0625
2.8149e+05,-59.5688
2.8175e+05,-61.0719
2.8201e+05,-61.0719
2.8227e+05,-61.0719
2.8253e+05,-58.0625
2.8279e+05,-55.0531
2.8305e+05,-56.5594
2.8332e+05,-58.0625
2.8358e+05,-59.5688
2.8384e+05,-61.0719
2.8410e+05,-59.0844
2.8436e+05,-57.0938
2.8462e+05,-59.0844
2.8488e+05,-61.0719
2.8514e+05,-59.0844
2.8540e+05,-57.0938
2.8566e+05,-59.0844
2.8592e+05,-61.0719
2.8618e+05,-59.0844
2.8644e+05,-57.0938
2.8670e+05,-60.5875
2.8696e+05,-64.0812
2.8722e+05,-59.5688
2.8748e+05,-55.0531
2.8774e+05,-58.0625
2.8800e+05,-61.0719
2.8826e+05,-61.0719
2.8852e+05,-61.0719
2.8878e+05,-61.0719
2.8904e+05,-61.0719
2.8930e+05,-61.0719
2.8956e+05,-61.0719
2.8983e+05,-59.5688
2.9009e+05,-58.0625
2.9035e+05,-59.5688
2.9061e+05,-61.0719
2.9087e+05,-59.0844
2.9113e+05,-57.0938
2.9139e+05,-59.0844
2.9165e+05,-61.0719
2.9191e+05,-59.0844
2.9217e+05,-57.0938
2.9243e+05,-56.075
2.9269e+05,-55.0531
2.9295e+05,-58.0625
2.9321e+05,-61.0719
2.9347e+05,-57.0094
2.9373e+05,-52.9438
2.9399e+05,-58.5125
2.9425e+05,-64.0812
2.9451e+05,-62.5781
2.9477e+05,-61.0719
2.9503e+05,-59.0844
2.9529e+05,-57.0938
2.9555e+05,-57.0938
2.9581e+05,-57.0938
2.9607e+05,-60.5875
2.9634e+05,-64.0812
2.9660e+05,-60.5875
2.9686e+05,-57.0938
2.9712e+05,-59.0844
2.9738e+05,-61.0719
2.9764e+05,-61.0719
2.9790e+05,-61.0719
2.9816e+05,-62.5781
2.9842e+05,-64.0812
2.9868e+05,-60.5875
2.9894e+05,-57.0938
2.9920e+05,-56.075
2.9946e+05,-55.0531
2.9972e+05,-59.5688
2.9998e+05,-64.0812
3.0024e+05,-60.5875
3.0050e+05,-57.0938
3.0076e+05,-57.0938
3.0102e+05,-57.0938
3.0128e+05,-59.0844
3.0154e+05,-61.0719
3.0180e+05,-61.0719
3.0206e+05,-61.0719
3.0232e+05,-59.0844
3.0258e+05,-57.0938
3.0285e+05,-60.5875
3.0311e+05,-64.0812
3.0337e+05,-62.5781
3.0363e+05,-61.0719
3.0389e+05,-62.5781
3.0415e+05,-64.0812
3.0441e+05,-60.5875
3.0467e+05,-57.0938
3.0493e+05,-59.0844
3.0519e+05,-61.0719
3.0545e+05,-61.0719
3.0571e+05,-61.0719
3.0597e+05,-62.5781
3.0623e+05,-64.0812
3.0649e+05,-60.5875
3.0675e+05,-57.0938
3.0701e+05,-60.5875
3.0727e+05,-64.0812
3.0753e+05,-62.5781
3.0779e+05,-61.0719
3.0805e+05,-59.0844
3.0831e+05,-57.0938
3.0857e+05,-59.0844
3.0883e+05,-61.0719
3.0909e+05,-61.0719
3.0936e+05,-61.0719
3.0962e+05,-59.0844
3.0988e+05,-57.0938
3.1014e+05,-57.0938
3.1040e+05,-57.0938
3.1066e+05,-57.0938
3.1092e+05,-57.0938
3.1118e+05,-57.5781
3.1144e+05,-58.0625
3.1170e+05,-56.0719
3.1196e+05,-54.0812
3.1222e+05,-57.5781
3.1248e+05,-61.0719
3.1274e+05,-62.5781
3.1300e+05,-64.0812
3.1326e+05,-62.5781
3.1352e+05,-61.0719
3.1378e+05,-59.0844
3.1404e+05,-57.0938
3.1430e+05,-59.0844
3.1456e+05,-61.0719
3.1482e+05,-59.5688
3.1508e+05,-58.0625
3.1534e+05,-57.5781
3.1560e+05,-57.0938
3.1587e+05,-59.0844
3.1613e+05,-61.0719
3.1639e+05,-59.0844
3.1665e+05,-57.0938
3.1691e+05,-60.5875
3.1717e+05,-64.0812
3.1743e+05,-60.5875
3.1769e+05,-57.0938
3.1795e+05,-57.0938
3.1821e+05,-57.0938
3.1847e+05,-59.0844
3.1873e+05,-61.0719
3.1899e+05,-59.0844
3.1925e+05,-57.0938
3.1951e+05,-57.0938
3.1977e+05,-57.0938
3.2003e+05,-56.075
3.2029e+05,-55.0531
3.2055e+05,-58.0625
3.2081e+05,-61.0719
3.2107e+05,-59.5688
3.2133e+05,-58.0625
3.2159e+05,-59.5688
3.2185e+05,-61.0719
3.2211e+05,-61.0719
3.2238e+05,-61.0719
3.2264e+05,-59.0844
3.2290e+05,-57.0938
3.2316e+05,-59.0844
3.2342e+05,-61.0719
3.2368e+05,-59.0844
3.2394e+05,-57.0938
3.2420e+05,-59.0844
3.2446e+05,-61.0719
3.2472e+05,-59.0844
3.2498e+05,-57.0938
3.2524e+05,-60.5875
3.2550e+05,-64.0812
3.2576e+05,-62.5781
3.2602e+05,-61.0719
3.2628e+05,-62.5781
3.2654e+05,-64.0812
3.2680e+05,-64.0812
3.2706e+05,-64.0812
3.2732e+05,-62.5781
3.2758e+05,-61.0719
3.2784e+05,-62.5781
3.2810e+05,-64.0812
3.2836e+05,-64.0812
3.2862e+05,-64.0812
3.2889e+05,-60.5875
3.2915e+05,-57.0938
3.2941e+05,-60.5875
3.2967e+05,-64.0812
3.2993e+05,-64.0812
3.3019e+05,-64.0812
3.3045e+05,-61.0719
3.3071e+05,-58.0625
3.3097e+05,-61.0719
3.3123e+05,-64.0812
3.3149e+05,-62.5781
3.3175e+05,-61.0719
3.3201e+05,-61.0719
3.3227e+05,-61.0719
3.3253e+05,-62.5781
3.3279e+05,-64.0812
3.3305e+05,-64.0812
3.3331e+05,-64.0812
3.3357e+05,-62.5781
3.3383e+05,-61.0719
3.3409e+05,-61.0719
3.3435e+05,-61.0719
3.3461e+05,-62.5781
3.3487e+05,-64.0812
3.3513e+05,-64.0812
3.3540e+05,-64.0812
3.3566e+05,-62.5781
3.3592e+05,-61.0719
3.3618e+05,-62.5781
3.3644e+05,-64.0812
3.3670e+05,-62.5781
3.3696e+05,-61.0719
3.3722e+05,-61.0719
3.3748e+05,-61.0719
3.3774e+05,-62.5781
3.3800e+05,-64.0812
3.3826e+05,-64.0812
3.3852e+05,-64.0812
3.3878e+05,-64.0812
3.3904e+05,-64.0812
3.3930e+05,-60.5875
3.3956e+05,-57.0938
3.3982e+05,-60.5875
3.4008e+05,-64.0812
3.4034e+05,-62.5781
3.4060e+05,-61.0719
3.4086e+05,-62.5781
3.4112e+05,-64.0812
3.4138e+05,-60.5875
3.4164e+05,-57.0938
3.4191e+05,-60.5875
3.4217e+05,-64.0812
3.4243e+05,-61.0719
3.4269e+05,-58.0625
3.4295e+05,-61.0719
3.4321e+05,-64.0812
3.4347e+05,-61.0719
3.4373e+05,-58.0625
3.4399e+05,-58.0625
3.4425e+05,-58.0625
3.4451e+05,-58.0625
3.4477e+05,-58.0625
3.4503e+05,-61.0719
3.4529e+05,-64.0812
3.4555e+05,-62.5781
3.4581e+05,-61.0719
3.4607e+05,-61.0719
3.4633e+05,-61.0719
3.4659e+05,-62.5781
3.4685e+05,-64.0812
3.4711e+05,-59.5688
3.4737e+05,-55.0531
3.4763e+05,-58.0625
3.4789e+05,-61.0719
3.4815e+05,-62.5781
3.4842e+05,-64.0812
3.4868e+05,-60.5875
3.4894e+05,-57.0938
3.4920e+05,-60.5875
3.4946e+05,-64.0812
3.4972e+05,-62.5781
3.4998e+05,-61.0719
3.5024e+05,-61.0719
3.5050e+05,-61.0719
3.5076e+05,-61.0719
3.5102e+05,-61.0719
3.5128e+05,-61.0719
3.5154e+05,-61.0719
3.5180e+05,-59.0844
3.5206e+05,-57.0938
3.5232e+05,-59.0844
3.5258e+05,-61.0719
3.5284e+05,-59.0844
3.5310e+05,-57.0938
3.5336e+05,-60.5875
3.5362e+05,-64.0812
3.5388e+05,-60.5875
3.5414e+05,-57.0938
3.5440e+05,-60.5875
3.5466e+05,-64.0812
3.5493e+05,-60.5875
3.5519e+05,-57.0938
3.5545e+05,-54.5688
3.5571e+05,-52.0406
3.5597e+05,-58.0625
3.5623e+05,-64.0812
3.5649e+05,-62.5781
3.5675e+05,-61.0719
3.5701e+05,-59.0844
3.5727e+05,-57.0938
3.5753e+05,-60.5875
3.5779e+05,-64.0812
3.5805e+05,-64.0812
3.5831e+05,-64.0812
3.5857e+05,-60.5875
3.5883e+05,-57.0938
3.5909e+05,-60.5875
3.5935e+05,-64.0812
3.5961e+05,-59.5688
3.5987e+05,-55.0531
3.6013e+05,-59.5688
3.6039e+05,-64.0812
3.6065e+05,-62.5781
3.6091e+05,-61.0719
3.6117e+05,-62.5781
3.6144e+05,-64.0812
3.6170e+05,-64.0812
3.6196e+05,-64.0812
3.6222e+05,-64.0812
3.6248e+05,-64.0812
3.6274e+05,-61.0719
3.6300e+05,-58.0625
3.6326e+05,-61.0719
3.6352e+05,-64.0812
3.6378e+05,-61.0719
3.6404e+05,-58.0625
3.6430e+05,-61.0719
3.6456e+05,-64.0812
3.6482e+05,-62.5781
3.6508e+05,-61.0719
3.6534e+05,-62.5781
3.6560e+05,-64.0812
3.6586e+05,-62.5781
3.6612e+05,-61.0719
3.6638e+05,-62.5781
3.6664e+05,-64.0812
3.6690e+05,-62.5781
3.6716e+05,-61.0719
3.6742e+05,-62.5781
3.6768e+05,-64.0812
3.6795e+05,-64.0812
3.6821e+05,-64.0812
3.6847e+05,-60.5875
3.6873e+05,-57.0938
3.6899e+05,-60.5875
3.6925e+05,-64.0812
3.6951e+05,-64.0812
3.6977e+05,-64.0812
3.7003e+05,-59.5688
3.7029e+05,-55.0531
3.7055e+05,-59.5688
3.7081e+05,-64.0812
3.7107e+05,-61.0719
3.7133e+05,-58.0625
3.7159e+05,-61.0719
3.7185e+05,-64.0812
3.7211e+05,-64.0812
3.7237e+05,-64.0812
3.7263e+05,-64.0812
3.7289e+05,-64.0812
3.7315e+05,-64.0812
3.7341e+05,-64.0812
3.7367e+05,-64.0812
3.7393e+05,-64.0812
3.7419e+05,-62.5781
3.7446e+05,-61.0719
3.7472e+05,-62.5781
3.7498e+05,-64.0812
3.7524e+05,-64.0812
3.7550e+05,-64.0812
3.7576e+05,-62.5781
3.7602e+05,-61.0719
3.7628e+05,-61.0719
3.7654e+05,-61.0719
3.7680e+05,-61.0719
3.7706e+05,-61.0719
3.7732e+05,-62.5781
3.7758e+05,-64.0812
3.7784e+05,-62.5781
3.7810e+05,-61.0719
3.7836e+05,-61.0719
3.7862e+05,-61.0719
3.7888e+05,-61.0719
3.7914e+05,-61.0719
3.7940e+05,-61.0719
3.7966e+05,-61.0719
3.7992e+05,-62.5781
3.8018e+05,-64.0812
3.8044e+05,-64.0812
3.8070e+05,-64.0812
3.8097e+05,-62.5781
3.8123e+05,-61.0719
3.8149e+05,-62.5781
3.8175e+05,-64.0812
3.8201e+05,-61.0719
3.8227e+05,-58.0625
3.8253e+05,-61.0719
3.8279e+05,-64.0812
3.8305e+05,-60.5875
3.8331e+05,-57.0938
3.8357e+05,-60.5875
3.8383e+05,-64.0812
3.8409e+05,-62.5781
3.8435e+05,-61.0719
3.8461e+05,-59.0844
3.8487e+05,-57.0938
3.8513e+05,-59.0844
3.8539e+05,-61.0719
3.8565e+05,-62.5781
3.8591e+05,-64.0812
3.8617e+05,-62.5781
3.8643e+05,-61.0719
3.8669e+05,-59.0844
3.8695e+05,-57.0938
3.8721e+05,-60.5875
3.8748e+05,-64.0812
3.8774e+05,-64.0812
3.8800e+05,-64.0812
3.8826e+05,-64.0812
3.8852e+05,-64.0812
3.8878e+05,-61.0719
3.8904e+05,-58.0625
3.8930e+05,-61.0719
3.8956e+05,-64.0812
3.8982e+05,-64.0812
3.9008e+05,-64.0812
3.9034e+05,-59.5688
3.9060e+05,-55.0531
3.9086e+05,-58.0625
3.9112e+05,-61.0719
3.9138e+05,-62.5781
3.9164e+05,-64.0812
3.9190e+05,-64.0812
3.9216e+05,-64.0812
3.9242e+05,-61.0719
3.9268e+05,-58.0625
3.9294e+05,-59.5688
3.9320e+05,-61.0719
3.9346e+05,-59.0844
3.9372e+05,-57.0938
3.9399e+05,-59.0844
3.9425e+05,-61.0719
3.9451e+05,-62.5781
3.9477e+05,-64.0812
3.9503e+05,-64.0812
3.9529e+05,-64.0812
3.9555e+05,-62.5781
3.9581e+05,-61.0719
3.9607e+05,-62.5781
3.9633e+05,-64.0812
3.9659e+05,-60.5875
3.9685e+05,-57.0938
3.9711e+05,-60.5875
3.9737e+05,-64.0812
3.9763e+05,-64.0812
3.9789e+05,-64.0812
3.9815e+05,-60.5875
3.9841e+05,-57.0938
3.9867e+05,-59.0844
3.9893e+05,-61.0719
3.9919e+05,-61.0719
3.9945e+05,-61.0719
3.9971e+05,-62.5781
3.9997e+05,-64.0812
4.0023e+05,-60.5875
4.0050e+05,-57.0938
4.0076e+05,-59.0844
4.0102e+05,-61.0719
4.0128e+05,-62.5781
4.0154e+05,-64.0812
4.0180e+05,-64.0812
4.0206e+05,-64.0812
4.0232e+05,-60.5875
4.0258e+05,-57.0938
4.0284e+05,-60.5875
4.0310e+05,-64.0812
4.0336e+05,-62.5781
4.0362e+05,-61.0719
4.0388e+05,-61.0719
4.0414e+05,-61.0719
4.0440e+05,-62.5781
4.0466e+05,-64.0812
4.0492e+05,-64.0812
4.0518e+05,-64.0812
4.0544e+05,-64.0812
4.0570e+05,-64.0812
4.0596e+05,-64.0812
4.0622e+05,-64.0812
4.0648e+05,-60.5875
4.0674e+05,-57.0938
4.0701e+05,-60.5875
4.0727e+05,-64.0812
4.0753e+05,-62.5781
4.0779e+05,-61.0719
4.0805e+05,-62.5781
4.0831e+05,-64.0812
4.0857e+05,-62.5781
4.0883e+05,-61.0719
4.0909e+05,-62.5781
4.0935e+05,-64.0812
4.0961e+05,-64.0812
4.0987e+05,-64.0812
4.1013e+05,-62.5781
4.1039e+05,-61.0719
4.1065e+05,-62.5781
4.1091e+05,-64.0812
4.1117e+05,-62.5781
4.1143e+05,-61.0719
4.1169e+05,-61.0719
4.1195e+05,-61.0719
4.1221e+05,-62.5781
4.1247e+05,-64.0812
4.1273e+05,-64.0812
4.1299e+05,-64.0812
4.1325e+05,-62.5781
4.1352e+05,-61.0719
4.1378e+05,-62.5781
4.1404e+05,-64.0812
4.1430e+05,-62.5781
4.1456e+05,-61.0719
4.1482e+05,-61.0719
4.1508e+05,-61.0719
4.1534e+05,-59.0844
4.1560e+05,-57.0938
4.1586e+05,-60.5875
4.1612e+05,-64.0812
4.1638e+05,-62.5781
4.1664e+05,-61.0719
4.1690e+05,-62.5781
4.1716e+05,-64.0812
4.1742e+05,-62.5781
4.1768e+05,-61.0719
4.1794e+05,-61.0719
4.1820e+05,-61.0719
4.1846e+05,-59.5688
4.1872e+05,-58.0625
4.1898e+05,-61.0719
4.1924e+05,-64.0812
4.1950e+05,-64.0812
4.1976e+05,-64.0812
4.2003e+05,-62.5781
4.2029e+05,-61.0719
4.2055e+05,-61.0719
4.2081e+05,-61.0719
4.2107e+05,-61.0719
4.2133e+05,-61.0719
4.2159e+05,-62.5781
4.2185e+05,-64.0812
4.2211e+05,-62.5781
4.2237e+05,-61.0719
4.2263e+05,-61.0719
4.2289e+05,-61.0719
4.2315e+05,-61.0719
4.2341e+05,-61.0719
4.2367e+05,-62.5781
4.2393e+05,-64.0812
4.2419e+05,-61.0719
4.2445e+05,-58.0625
4.2471e+05,-61.0719
4.2497e+05,-64.0812
4.2523e+05,-62.5781
4.2549e+05,-61.0719
4.2575e+05,-62.5781
4.2601e+05,-64.0812
4.2627e+05,-64.0812
4.2654e+05,-64.0812
4.2680e+05,-64.0812
4.2706e+05,-64.0812
4.2732e+05,-62.5781
4.2758e+05,-61.0719
4.2784e+05,-62.5781
4.2810e+05,-64.0812
4.2836e+05,-60.5875
4.2862e+05,-57.0938
4.2888e+05,-57.5781
4.2914e+05,-58.0625
4.2940e+05,-59.5688
4.2966e+05,-61.0719
4.2992e+05,-59.0844
4.3018e+05,-57.0938
4.3044e+05,-60.5875
4.3070e+05,-64.0812
4.3096e+05,-64.0812
4.3122e+05,-64.0812
4.3148e+05,-62.5781
4.3174e+05,-61.0719
4.3200e+05,-59.0844
4.3226e+05,-57.0938
4.3252e+05,-60.5875
4.3278e+05,-64.0812
4.3305e+05,-64.0812
4.3331e+05,-64.0812
4.3357e+05,-64.0812
4.3383e+05,-64.0812
4.3409e+05,-60.5875
4.3435e+05,-57.0938
4.3461e+05,-60.5875
4.3487e+05,-64.0812
4.3513e+05,-62.5781
4.3539e+05,-61.0719
4.3565e+05,-61.0719
4.3591e+05,-61.0719
4.3617e+05,-62.5781
4.3643e+05,-64.0812
4.3669e+05,-59.5688
4.3695e+05,-55.0531
4.3721e+05,-59.5688
4.3747e+05,-64.0812
4.3773e+05,-64.0812
4.3799e+05,-64.0812
4.3825e+05,-64.0812
4.3851e+05,-64.0812
4.3877e+05,-61.0719
4.3903e+05,-58.0625
4.3929e+05,-61.0719
4.3956e+05,-64.0812
4.3982e+05,-64.0812
4.4008e+05,-64.0812
4.4034e+05,-62.5781
4.4060e+05,-61.0719
4.4086e+05,-62.5781
4.4112e+05,-64.0812
4.4138e+05,-64.0812
4.4164e+05,-64.0812
4.4190e+05,-60.5875
4.4216e+05,-57.0938
4.4242e+05,-60.5875
4.4268e+05,-64.0812
4.4294e+05,-62.5781
4.4320e+05,-61.0719
4.4346e+05,-62.5781
4.4372e+05,-64.0812
4.4398e+05,-62.5781
4.4424e+05,-61.0719
4.4450e+05,-62.5781
4.4476e+05,-64.0812
4.4502e+05,-64.0812
4.4528e+05,-64.0812
4.4554e+05,-62.5781
4.4580e+05,-61.0719
4.4607e+05,-62.5781
4.4633e+05,-64.0812
4.4659e+05,-64.0812
4.4685e+05,-64.0812
4.4711e+05,-64.0812
4.4737e+05,-64.0812
4.4763e+05,-62.5781
4.4789e+05,-61.0719
4.4815e+05,-61.0719
4.4841e+05,-61.0719
4.4867e+05,-61.0719
4.4893e+05,-61.0719
4.4919e+05,-61.0719
4.4945e+05,-61.0719
4.4971e+05,-61.0719
4.4997e+05,-61.0719
4.5023e+05,-62.5781
4.5049e+05,-64.0812
4.5075e+05,-62.5781
4.5101e+05,-61.0719
4.5127e+05,-61.0719
4.5153e+05,-61.0719
4.5179e+05,-62.5781
4.5205e+05,-64.0812
4.5231e+05,-62.5781
4.5258e+05,-61.0719
4.5284e+05,-61.0719
4.5310e+05,-61.0719
4.5336e+05,-62.5781
4.5362e+05,-64.0812
4.5388e+05,-60.5875
4.5414e+05,-57.0938
4.5440e+05,-59.0844
4.5466e+05,-61.0719
4.5492e+05,-62.5781
4.5518e+05,-64.0812
4.5544e+05,-62.5781
4.5570e+05,-61.0719
4.5596e+05,-62.5781
4.5622e+05,-64.0812
4.5648e+05,-64.0812
4.5674e+05,-64.0812
4.5700e+05,-62.5781
4.5726e+05,-61.0719
4.5752e+05,-61.0719
4.5778e+05,-61.0719
4.5804e+05,-62.5781
4.5830e+05,-64.0812
4.5856e+05,-60.5875
4.5882e+05,-57.0938
4.5909e+05,-60.5875
4.5935e+05,-64.0812
4.5961e+05,-64.0812
4.5987e+05,-64.0812
4.6013e+05,-64.0812
4.6039e+05,-64.0812
4.6065e+05,-62.5781
4.6091e+05,-61.0719
4.6117e+05,-62.5781
4.6143e+05,-64.0812
4.6169e+05,-62.5781
4.6195e+05,-61.0719
4.6221e+05,-62.5781
4.6247e+05,-64.0812
4.6273e+05,-62.5781
4.6299e+05,-61.0719
4.6325e+05,-62.5781
4.6351e+05,-64.0812
4.6377e+05,-61.0719
4.6403e+05,-58.0625
4.6429e+05,-61.0719
4.6455e+05,-64.0812
4.6481e+05,-64.0812
4.6507e+05,-64.0812
4.6533e+05,-62.5781
4.6560e+05,-61.0719
4.6586e+05,-62.5781
4.6612e+05,-64.0812
4.6638e+05,-64.0812
4.6664e+05,-64.0812
4.6690e+05,-64.0812
4.6716e+05,-64.0812
4.6742e+05,-64.0812
4.6768e+05,-64.0812
4.6794e+05,-62.5781
4.6820e+05,-61.0719
4.6846e+05,-61.0719
4.6872e+05,-61.0719
4.6898e+05,-61.0719
4.6924e+05,-61.0719
4.6950e+05,-61.0719
4.6976e+05,-61.0719
4.7002e+05,-61.0719
4.7028e+05,-61.0719
4.7054e+05,-59.0844
4.7080e+05,-57.0938
4.7106e+05,-60.5875
4.7132e+05,-64.0812
4.7158e+05,-62.5781
4.7184e+05,-61.0719
4.7211e+05,-62.5781
4.7237e+05,-64.0812
4.7263e+05,-64.0812
4.7289e+05,-64.0812
4.7315e+05,-60.5875
4.7341e+05,-57.0938
4.7367e+05,-59.0844
4.7393e+05,-61.0719
4.7419e+05,-62.5781
4.7445e+05,-64.0812
4.7471e+05,-60.5875
4.7497e+05,-57.0938
4.7523e+05,-60.5875
4.7549e+05,-64.0812
4.7575e+05,-62.5781
4.7601e+05,-61.0719
4.7627e+05,-61.0719
4.7653e+05,-61.0719
4.7679e+05,-62.5781
4.7705e+05,-64.0812
4.7731e+05,-62.5781
4.7757e+05,-61.0719
4.7783e+05,-61.0719
4.7809e+05,-61.0719
4.7835e+05,-62.5781
4.7862e+05,-64.0812
4.7888e+05,-64.0812
4.7914e+05,-64.0812
4.7940e+05,-62.5781
4.7966e+05,-61.0719
4.7992e+05,-62.5781
4.8018e+05,-64.0812
4.8044e+05,-62.5781
4.8070e+05,-61.0719
4.8096e+05,-62.5781
4.8122e+05,-64.0812
4.8148e+05,-60.5875
4.8174e+05,-57.0938
4.8200e+05,-59.0844
4.8226e+05,-61.0719
4.8252e+05,-61.0719
4.8278e+05,-61.0719
4.8304e+05,-61.0719
4.8330e+05,-61.0719
4.8356e+05,-59.5688
4.8382e+05,-58.0625
4.8408e+05,-61.0719
4.8434e+05,-64.0812
4.8460e+05,-64.0812
4.8486e+05,-64.0812
4.8513e+05,-62.5781
4.8539e+05,-61.0719
4.8565e+05,-62.5781
4.8591e+05,-64.0812
4.8617e+05,-62.5781
4.8643e+05,-61.0719
4.8669e+05,-62.5781
4.8695e+05,-64.0812
4.8721e+05,-62.5781
4.8747e+05,-61.0719
4.8773e+05,-62.5781
4.8799e+05,-64.0812
4.8825e+05,-64.0812
4.8851e+05,-64.0812
4.8877e+05,-64.0812
4.8903e+05,-64.0812
4.8929e+05,-62.5781
4.8955e+05,-61.0719
4.8981e+05,-61.0719
4.9007e+05,-61.0719
4.9033e+05,-62.5781
4.9059e+05,-64.0812
4.9085e+05,-60.5875
4.9111e+05,-57.0938
4.9137e+05,-60.5875
4.9164e+05,-64.0812
4.9190e+05,-64.0812
4.9216e+05,-64.0812
4.9242e+05,-62.5781
4.9268e+05,-61.0719
4.9294e+05,-61.0719
4.9320e+05,-61.0719
4.9346e+05,-59.0844
4.9372e+05,-57.0938
4.9398e+05,-60.5875
4.9424e+05,-64.0812
4.9450e+05,-62.5781
4.9476e+05,-61.0719
4.9502e+05,-61.0719
4.9528e+05,-61.0719
4.9554e+05,-61.0719
4.9580e+05,-61.0719
4.9606e+05,-62.5781
4.9632e+05,-64.0812
4.9658e+05,-62.5781
4.9684e+05,-61.0719
4.9710e+05,-62.5781
4.9736e+05,-64.0812
4.9762e+05,-62.5781
4.9788e+05,-61.0719
4.9815e+05,-61.0719
4.9841e+05,-61.0719
4.9867e+05,-61.0719
4.9893e+05,-61.0719
4.9919e+05,-59.0844
4.9945e+05,-57.0938
4.9971e+05,-59.0844
4.9997e+05,-61.0719
5.0023e+05,-61.0719
5.0049e+05,-61.0719
5.0075e+05,-62.5781
5.0101e+05,-64.0812
5.0127e+05,-62.5781
5.0153e+05,-61.0719
5.0179e+05,-62.5781
5.0205e+05,-64.0812
5.0231e+05,-62.5781
5.0257e+05,-61.0719
5.0283e+05,-61.0719
5.0309e+05,-61.0719
5.0335e+05,-61.0719
5.0361e+05,-61.0719
5.0387e+05,-62.5781
5.0413e+05,-64.0812
5.0439e+05,-61.0719
5.0466e+05,-58.0625
5.0492e+05,-58.0625
5.0518e+05,-58.0625
5.0544e+05,-59.5688
5.0570e+05,-61.0719
5.0596e+05,-61.0719
5.0622e+05,-61.0719
5.0648e+05,-61.0719
5.0674e+05,-61.0719
5.0700e+05,-61.0719
5.0726e+05,-61.0719
5.0752e+05,-62.5781
5.0778e+05,-64.0812
5.0804e+05,-64.0812
5.0830e+05,-64.0812
5.0856e+05,-62.5781
5.0882e+05,-61.0719
5.0908e+05,-61.0719
5.0934e+05,-61.0719
5.0960e+05,-59.0844
5.0986e+05,-57.0938
5.1012e+05,-59.0844
5.1038e+05,-61.0719
5.1064e+05,-62.5781
5.1090e+05,-64.0812
5.1117e+05,-62.5781
5.1143e+05,-61.0719
5.1169e+05,-61.0719
5.1195e+05,-61.0719
5.1221e+05,-61.0719
5.1247e+05,-61.0719
5.1273e+05,-61.0719
5.1299e+05,-61.0719
5.1325e+05,-62.5781
5.1351e+05,-64.0812
5.1377e+05,-62.5781
5.1403e+05,-61.0719
5.1429e+05,-62.5781
5.1455e+05,-64.0812
5.1481e+05,-62.5781
5.1507e+05,-61.0719
5.1533e+05,-62.5781
5.1559e+05,-64.0812
5.1585e+05,-62.5781
5.1611e+05,-61.0719
5.1637e+05,-59.0844
5.1663e+05,-57.0938
5.1689e+05,-60.5875
5.1715e+05,-64.0812
5.1741e+05,-60.5875
5.1768e+05,-57.0938
5.1794e+05,-59.0844
5.1820e+05,-61.0719
5.1846e+05,-62.5781
5.1872e+05,-64.0812
5.1898e+05,-64.0812
5.1924e+05,-64.0812
5.1950e+05,-64.0812
5.1976e+05,-64.0812
5.2002e+05,-62.5781
5.2028e+05,-61.0719
5.2054e+05,-62.5781
5.2080e+05,-64.0812
5.2106e+05,-60.5875
5.2132e+05,-57.0938
5.2158e+05,-60.5875
5.2184e+05,-64.0812
5.2210e+05,-59.5688
5.2236e+05,-55.0531
5.2262e+05,-59.5688
5.2288e+05,-64.0812
5.2314e+05,-62.5781
5.2340e+05,-61.0719
5.2366e+05,-62.5781
5.2392e+05,-64.0812
5.2419e+05,-62.5781
5.2445e+05,-61.0719
5.2471e+05,-62.5781
5.2497e+05,-64.0812
5.2523e+05,-60.5875
5.2549e+05,-57.0938
5.2575e+05,-60.5875
5.2601e+05,-64.0812
5.2627e+05,-64.0812
5.2653e+05,-64.0812
5.2679e+05,-64.0812
5.2705e+05,-64.0812
5.2731e+05,-64.0812
5.2757e+05,-64.0812
5.2783e+05,-61.0719
5.2809e+05,-58.0625
5.2835e+05,-61.0719
5.2861e+05,-64.0812
5.2887e+05,-60.5875
5.2913e+05,-57.0938
5.2939e+05,-60.5875
5.2965e+05,-64.0812
5.2991e+05,-62.5781
5.3017e+05,-61.0719
5.3043e+05,-62.5781
5.3070e+05,-64.0812
5.3096e+05,-62.5781
5.3122e+05,-61.0719
5.3148e+05,-62.5781
5.3174e+05,-64.0812
5.3200e+05,-62.5781
5.3226e+05,-61.0719
5.3252e+05,-62.5781
5.3278e+05,-64.0812
5.3304e+05,-59.5688
5.3330e+05,-55.0531
5.3356e+05,-59.5688
5.3382e+05,-64.0812
5.3408e+05,-64.0812
5.3434e+05,-64.0812
5.3460e+05,-61.0719
5.3486e+05,-58.0625
5.3512e+05,-59.5688
5.3538e+05,-61.0719
5.3564e+05,-62.5781
5.3590e+05,-64.0812
5.3616e+05,-62.5781
5.3642e+05,-61.0719
5.3668e+05,-61.0719
5.3694e+05,-61.0719
5.3721e+05,-61.0719
5.3747e+05,-61.0719
5.3773e+05,-61.0719
5.3799e+05,-61.0719
5.3825e+05,-61.0719
5.3851e+05,-61.0719
5.3877e+05,-61.0719
5.3903e+05,-61.0719
5.3929e+05,-59.0844
5.3955e+05,-57.0938
5.3981e+05,-60.5875
5.4007e+05,-64.0812
5.4033e+05,-62.5781
5.4059e+05,-61.0719
5.4085e+05,-59.0844
5.4111e+05,-57.0938
5.4137e+05,-59.0844
5.4163e+05,-61.0719
5.4189e+05,-62.5781
5.4215e+05,-64.0812
5.4241e+05,-62.5781
5.4267e+05,-61.0719
5.4293e+05,-61.0719
5.4319e+05,-61.0719
5.4345e+05,-59.5688
5.4372e+05,-58.0625
5.4398e+05,-61.0719
5.4424e+05,-64.0812
5.4450e+05,-64.0812
5.4476e+05,-64.0812
5.4502e+05,-64.0812
5.4528e+05,-64.0812
5.4554e+05,-62.5781
5.4580e+05,-61.0719
5.4606e+05,-62.5781
5.4632e+05,-64.0812
5.4658e+05,-62.5781
5.4684e+05,-61.0719
5.4710e+05,-61.0719
5.4736e+05,-61.0719
5.4762e+05,-61.0719
5.4788e+05,-61.0719
5.4814e+05,-62.5781
5.4840e+05,-64.0812
5.4866e+05,-64.0812
5.4892e+05,-64.0812
5.4918e+05,-62.5781
5.4944e+05,-61.0719
5.4970e+05,-61.0719
5.4996e+05,-61.0719
5.5023e+05,-62.5781
5.5049e+05,-64.0812
5.5075e+05,-60.5875
5.5101e+05,-57.0938
5.5127e+05,-60.5875
5.5153e+05,-64.0812
5.5179e+05,-64.0812
5.5205e+05,-64.0812
5.5231e+05,-62.5781
5.5257e+05,-61.0719
5.5283e+05,-61.0719
5.5309e+05,-61.0719
5.5335e+05,-62.5781
5.5361e+05,-64.0812
5.5387e+05,-64.0812
5.5413e+05,-64.0812
5.5439e+05,-62.5781
5.5465e+05,-61.0719
5.5491e+05,-62.5781
5.5517e+05,-64.0812
5.5543e+05,-62.5781
5.5569e+05,-61.0719
5.5595e+05,-62.5781
5.5621e+05,-64.0812
5.5647e+05,-62.5781
5.5674e+05,-61.0719
5.5700e+05,-59.0844
5.5726e+05,-57.0938
5.5752e+05,-60.5875
5.5778e+05,-64.0812
5.5804e+05,-62.5781
5.5830e+05,-61.0719
5.5856e+05,-61.0719
5.5882e+05,-61.0719
5.5908e+05,-62.5781
5.5934e+05,-64.0812
5.5960e+05,-64.0812
5.5986e+05,-64.0812
5.6012e+05,-62.5781
5.6038e+05,-61.0719
5.6064e+05,-62.5781
5.6090e+05,-64.0812
5.6116e+05,-62.5781
5.6142e+05,-61.0719
5.6168e+05,-62.5781
5.6194e+05,-64.0812
5.6220e+05,-62.5781
5.6246e+05,-61.0719
5.6272e+05,-59.0844
5.6298e+05,-57.0938
5.6325e+05,-60.5875
5.6351e+05,-64.0812
5.6377e+05,-64.0812
5.6403e+05,-64.0812
5.6429e+05,-64.0812
5.6455e+05,-64.0812
5.6481e+05,-60.5875
5.6507e+05,-57.0938
5.6533e+05,-60.5875
5.6559e+05,-64.0812
5.6585e+05,-62.5781
5.6611e+05,-61.0719
5.6637e+05,-61.0719
5.6663e+05,-61.0719
5.6689e+05,-62.5781
5.6715e+05,-64.0812
5.6741e+05,-64.0812
5.6767e+05,-64.0812
5.6793e+05,-60.5875
5.6819e+05,-57.0938
5.6845e+05,-60.5875
5.6871e+05,-64.0812
5.6897e+05,-62.5781
5.6923e+05,-61.0719
5.6949e+05,-61.0719
5.6976e+05,-61.0719
5.7002e+05,-61.0719
5.7028e+05,-61.0719
5.7054e+05,-62.5781
5.7080e+05,-64.0812
5.7106e+05,-64.0812
5.7132e+05,-64.0812
5.7158e+05,-62.5781
5.7184e+05,-61.0719
5.7210e+05,-61.0719
5.7236e+05,-61.0719
5.7262e+05,-62.5781
5.7288e+05,-64.0812
5.7314e+05,-62.5781
5.7340e+05,-61.0719
5.7366e+05,-62.5781
5.7392e+05,-64.0812
5.7418e+05,-59.5688
5.7444e+05,-55.0531
5.7470e+05,-58.0625
5.7496e+05,-61.0719
5.7522e+05,-62.5781
5.7548e+05,-64.0812
5.7574e+05,-62.5781
5.7600e+05,-61.0719
5.7627e+05,-59.0844
5.7653e+05,-57.0938
5.7679e+05,-59.0844
5.7705e+05,-61.0719
5.7731e+05,-61.0719
5.7757e+05,-61.0719
5.7783e+05,-59.0844
5.7809e+05,-57.0938
5.7835e+05,-59.0844
5.7861e+05,-61.0719
5.7887e+05,-61.0719
5.7913e+05,-61.0719
5.7939e+05,-62.5781
5.7965e+05,-64.0812
5.7991e+05,-62.5781
5.8017e+05,-61.0719
5.8043e+05,-62.5781
5.8069e+05,-64.0812
5.8095e+05,-60.5875
5.8121e+05,-57.0938
5.8147e+05,-60.5875
5.8173e+05,-64.0812
5.8199e+05,-64.0812
5.8225e+05,-64.0812
5.8251e+05,-64.0812
5.8278e+05,-64.0812
5.8304e+05,-62.5781
5.8330e+05,-61.0719
5.8356e+05,-62.5781
5.8382e+05,-64.0812
5.8408e+05,-62.5781
5.8434e+05,-61.0719
5.8460e+05,-62.5781
5.8486e+05,-64.0812
5.8512e+05,-62.5781
5.8538e+05,-61.0719
5.8564e+05,-62.5781
5.8590e+05,-64.0812
5.8616e+05,-60.5875
5.8642e+05,-57.0938
5.8668e+05,-60.5875
5.8694e+05,-64.0812
5.8720e+05,-62.5781
5.8746e+05,-61.0719
5.8772e+05,-61.0719
5.8798e+05,-61.0719
5.8824e+05,-61.0719
5.8850e+05,-61.0719
5.8876e+05,-61.0719
5.8902e+05,-61.0719
5.8929e+05,-62.5781
5.8955e+05,-64.0812
5.8981e+05,-62.5781
5.9007e+05,-61.0719
5.9033e+05,-62.5781
5.9059e+05,-64.0812
5.9085e+05,-62.5781
5.9111e+05,-61.0719
5.9137e+05,-62.5781
5.9163e+05,-64.0812
5.9189e+05,-64.0812
5.9215e+05,-64.0812
5.9241e+05,-62.5781
5.9267e+05,-61.0719
5.9293e+05,-62.5781
5.9319e+05,-64.0812
5.9345e+05,-62.5781
5.9371e+05,-61.0719
5.9397e+05,-62.5781
5.9423e+05,-64.0812
5.9449e+05,-62.5781
5.9475e+05,-61.0719
5.9501e+05,-61.0719
5.9527e+05,-61.0719
5.9553e+05,-61.0719
5.9580e+05,-61.0719
5.9606e+05,-62.5781
5.9632e+05,-64.0812
5.9658e+05,-62.5781
5.9684e+05,-61.0719
5.9710e+05,-62.5781
5.9736e+05,-64.0812
5.9762e+05,-62.5781
5.9788e+05,-61.0719
5.9814e+05,-62.5781
5.9840e+05,-64.0812
5.9866e+05,-62.5781
5.9892e+05,-61.0719
5.9918e+05,-62.5781
5.9944e+05,-64.0812
5.9970e+05,-60.5875
5.9996e+05,-57.0938
6.0022e+05,-60.5875
6.0048e+05,-64.0812
6.0074e+05,-64.0812
6.0100e+05,-64.0812
6.0126e+05,-64.0812
6.0152e+05,-64.0812
6.0178e+05,-64.0812
6.0204e+05,-64.0812
6.0231e+05,-64.0812
6.0257e+05,-64.0812
6.0283e+05,-62.5781
6.0309e+05,-61.0719
6.0335e+05,-62.5781
6.0361e+05,-64.0812
6.0387e+05,-62.5781
6.0413e+05,-61.0719
6.0439e+05,-62.5781
6.0465e+05,-64.0812
6.0491e+05,-62.5781
6.0517e+05,-61.0719
6.0543e+05,-61.0719
6.0569e+05,-61.0719
6.0595e+05,-62.5781
6.0621e+05,-64.0812
6.0647e+05,-64.0812
6.0673e+05,-64.0812
6.0699e+05,-62.5781
6.0725e+05,-61.0719
6.0751e+05,-62.5781
6.0777e+05,-64.0812
6.0803e+05,-64.0812
6.0829e+05,-64.0812
6.0855e+05,-62.5781
6.0882e+05,-61.0719
6.0908e+05,-61.0719
6.0934e+05,-61.0719
6.0960e+05,-62.5781
6.0986e+05,-64.0812
6.1012e+05,-62.5781
6.1038e+05,-61.0719
6.1064e+05,-62.5781
6.1090e+05,-64.0812
6.1116e+05,-62.5781
6.1142e+05,-61.0719
6.1168e+05,-58.0625
6.1194e+05,-55.0531
6.1220e+05,-59.5688
6.1246e+05,-64.0812
6.1272e+05,-62.5781
6.1298e+05,-61.0719
6.1324e+05,-61.0719
6.1350e+05,-61.0719
6.1376e+05,-62.5781
6.1402e+05,-64.0812
6.1428e+05,-62.5781
6.1454e+05,-61.0719
6.1480e+05,-62.5781
6.1506e+05,-64.0812
6.1533e+05,-62.5781
6.1559e+05,-61.0719
6.1585e+05,-59.0844
6.1611e+05,-57.0938
6.1637e+05,-59.0844
6.1663e+05,-61.0719
6.1689e+05,-59.5688
6.1715e+05,-58.0625
6.1741e+05,-61.0719
6.1767e+05,-64.0812
6.1793e+05,-60.5875
6.1819e+05,-57.0938
6.1845e+05,-59.0844
6.1871e+05,-61.0719
6.1897e+05,-62.5781
6.1923e+05,-64.0812
6.1949e+05,-64.0812
6.1975e+05,-64.0812
6.2001e+05,-62.5781
6.2027e+05,-61.0719
6.2053e+05,-62.5781
6.2079e+05,-64.0812
6.2105e+05,-62.5781
6.2131e+05,-61.0719
6.2157e+05,-61.0719
6.2184e+05,-61.0719
6.2210e+05,-61.0719
6.2236e+05,-61.0719
6.2262e+05,-62.5781
6.2288e+05,-64.0812
6.2314e+05,-62.5781
6.2340e+05,-61.0719
6.2366e+05,-58.0625
6.2392e+05,-55.0531
6.2418e+05,-59.5688
6.2444e+05,-64.0812
6.2470e+05,-60.5875
6.2496e+05,-57.0938
6.2522e+05,-60.5875
6.2548e+05,-64.0812
6.2574e+05,-64.0812
6.2600e+05,-64.0812
6.2626e+05,-62.5781
6.2652e+05,-61.0719
6.2678e+05,-61.0719
6.2704e+05,-61.0719
6.2730e+05,-62.5781
6.2756e+05,-64.0812
6.2782e+05,-62.5781
6.2808e+05,-61.0719
6.2835e+05,-62.5781
6.2861e+05,-64.0812
6.2887e+05,-64.0812
6.2913e+05,-64.0812
6.2939e+05,-62.5781
6.2965e+05,-61.0719
6.2991e+05,-62.5781
6.3017e+05,-64.0812
6.3043e+05,-64.0812
6.3069e+05,-64.0812
6.3095e+05,-59.5688
6.3121e+05,-55.0531
6.3147e+05,-58.0625
6.3173e+05,-61.0719
6.3199e+05,-62.5781
6.3225e+05,-64.0812
6.3251e+05,-59.5688
6.3277e+05,-55.0531
6.3303e+05,-59.5688
6.3329e+05,-64.0812
6.3355e+05,-62.5781
6.3381e+05,-61.0719
6.3407e+05,-62.5781
6.3433e+05,-64.0812
6.3459e+05,-62.5781
6.3486e+05,-61.0719
6.3512e+05,-61.0719
6.3538e+05,-61.0719
6.3564e+05,-62.5781
6.3590e+05,-64.0812
6.3616e+05,-62.5781
6.3642e+05,-61.0719
6.3668e+05,-61.0719
6.3694e+05,-61.0719
6.3720e+05,-59.0844
6.3746e+05,-57.0938
6.3772e+05,-59.0844
6.3798e+05,-61.0719
6.3824e+05,-62.5781
6.3850e+05,-64.0812
6.3876e+05,-64.0812
6.3902e+05,-64.0812
6.3928e+05,-62.5781
6.3954e+05,-61.0719
6.3980e+05,-61.0719
6.4006e+05,-61.0719
6.4032e+05,-62.5781
6.4058e+05,-64.0812
6.4084e+05,-62.5781
6.4110e+05,-61.0719
6.4137e+05,-62.5781
6.4163e+05,-64.0812
6.4189e+05,-64.0812
6.4215e+05,-64.0812
6.4241e+05,-62.5781
6.4267e+05,-61.0719
6.4293e+05,-61.0719
6.4319e+05,-61.0719
6.4345e+05,-62.5781
6.4371e+05,-64.0812
6.4397e+05,-64.0812
6.4423e+05,-64.0812
6.4449e+05,-62.5781
6.4475e+05,-61.0719
6.4501e+05,-59.0844
6.4527e+05,-57.0938
6.4553e+05,-57.0938
6.4579e+05,-57.0938
6.4605e+05,-59.0844
6.4631e+05,-61.0719
6.4657e+05,-59.0844
6.4683e+05,-57.0938
6.4709e+05,-60.5875
6.4735e+05,-64.0812
6.4761e+05,-62.5781
6.4788e+05,-61.0719
6.4814e+05,-62.5781
6.4840e+05,-64.0812
6.4866e+05,-62.5781
6.4892e+05,-61.0719
6.4918e+05,-62.5781
6.4944e+05,-64.0812
6.4970e+05,-64.0812
6.4996e+05,-64.0812
6.5022e+05,-60.5875
6.5048e+05,-57.0938
6.5074e+05,-59.0844
6.5100e+05,-61.0719
6.5126e+05,-61.0719
6.5152e+05,-61.0719
6.5178e+05,-62.5781
6.5204e+05,-64.0812
6.5230e+05,-64.0812
6.5256e+05,-64.0812
6.5282e+05,-64.0812
6.5308e+05,-64.0812
6.5334e+05,-64.0812
6.5360e+05,-64.0812
6.5386e+05,-64.0812
6.5412e+05,-64.0812
6.5439e+05,-64.0812
6.5465e+05,-64.0812
6.5491e+05,-62.5781
6.5517e+05,-61.0719
6.5543e+05,-62.5781
6.5569e+05,-64.0812
6.5595e+05,-64.0812
6.5621e+05,-64.0812
6.5647e+05,-62.5781
6.5673e+05,-61.0719
6.5699e+05,-62.5781
6.5725e+05,-64.0812
6.5751e+05,-64.0812
6.5777e+05,-64.0812
6.5803e+05,-64.0812
6.5829e+05,-64.0812
6.5855e+05,-62.5781
6.5881e+05,-61.0719
6.5907e+05,-62.5781
6.5933e+05,-64.0812
6.5959e+05,-62.5781
6.5985e+05,-61.0719
6.6011e+05,-62.5781
6.6037e+05,-64.0812
6.6063e+05,-64.0812
6.6090e+05,-64.0812
6.6116e+05,-62.5781
6.6142e+05,-61.0719
6.6168e+05,-62.5781
6.6194e+05,-64.0812
6.6220e+05,-64.0812
6.6246e+05,-64.0812
6.6272e+05,-62.5781
6.6298e+05,-61.0719
6.6324e+05,-62.5781
6.6350e+05,-64.0812
6.6376e+05,-64.0812
6.6402e+05,-64.0812
6.6428e+05,-64.0812
6.6454e+05,-64.0812
6.6480e+05,-64.0812
6.6506e+05,-64.0812
6.6532e+05,-64.0812
6.6558e+05,-64.0812
6.6584e+05,-64.0812
6.6610e+05,-64.0812
6.6636e+05,-64.0812
6.6662e+05,-64.0812
6.6688e+05,-64.0812
6.6714e+05,-64.0812
6.6741e+05,-64.0812
6.6767e+05,-64.0812
6.6793e+05,-64.0812
6.6819e+05,-64.0812
6.6845e+05,-64.0812
6.6871e+05,-64.0812
6.6897e+05,-64.0812
6.6923e+05,-64.0812
6.6949e+05,-64.0812
6.6975e+05,-64.0812
6.7001e+05,-62.5781
6.7027e+05,-61.0719
6.7053e+05,-62.5781
6.7079e+05,-64.0812
6.7105e+05,-64.0812
6.7131e+05,-64.0812
6.7157e+05,-60.5875
6.7183e+05,-57.0938
6.7209e+05,-59.0844
6.7235e+05,-61.0719
6.7261e+05,-62.5781
6.7287e+05,-64.0812
6.7313e+05,-64.0812
6.7339e+05,-64.0812
6.7365e+05,-64.0812
6.7392e+05,-64.0812
6.7418e+05,-62.5781
6.7444e+05,-61.0719
6.7470e+05,-62.5781
6.7496e+05,-64.0812
6.7522e+05,-62.5781
6.7548e+05,-61.0719
6.7574e+05,-62.5781
6.7600e+05,-64.0812
6.7626e+05,-62.5781
6.7652e+05,-61.0719
6.7678e+05,-62.5781
6.7704e+05,-64.0812
6.7730e+05,-64.0812
6.7756e+05,-64.0812
6.7782e+05,-62.5781
6.7808e+05,-61.0719
6.7834e+05,-62.5781
6.7860e+05,-64.0812
6.7886e+05,-64.0812
6.7912e+05,-64.0812
6.7938e+05,-64.0812
6.7964e+05,-64.0812
6.7990e+05,-62.5781
6.8016e+05,-61.0719
6.8043e+05,-62.5781
6.8069e+05,-64.0812
6.8095e+05,-62.5781
6.8121e+05,-61.0719
6.8147e+05,-62.5781
6.8173e+05,-64.0812
6.8199e+05,-64.0812
6.8225e+05,-64.0812
6.8251e+05,-64.0812
6.8277e+05,-64.0812
6.8303e+05,-62.5781
6.8329e+05,-61.0719
6.8355e+05,-62.5781
6.8381e+05,-64.0812
6.8407e+05,-62.5781
6.8433e+05,-61.0719
6.8459e+05,-62.5781
6.8485e+05,-64.0812
6.8511e+05,-61.0719
6.8537e+05,-58.0625
6.8563e+05,-61.0719
6.8589e+05,-64.0812
6.8615e+05,-64.0812
6.8641e+05,-64.0812
6.8667e+05,-64.0812
6.8694e+05,-64.0812
6.8720e+05,-62.5781
6.8746e+05,-61.0719
6.8772e+05,-61.0719
6.8798e+05,-61.0719
6.8824e+05,-61.0719
6.8850e+05,-61.0719
6.8876e+05,-62.5781
6.8902e+05,-64.0812
6.8928e+05,-64.0812
6.8954e+05,-64.0812
6.8980e+05,-62.5781
6.9006e+05,-61.0719
6.9032e+05,-62.5781
6.9058e+05,-64.0812
6.9084e+05,-64.0812
6.9110e+05,-64.0812
6.9136e+05,-61.0719
6.9162e+05,-58.0625
6.9188e+05,-61.0719
6.9214e+05,-64.0812
6.9240e+05,-64.0812
6.9266e+05,-64.0812
6.9292e+05,-62.5781
6.9318e+05,-61.0719
6.9345e+05,-62.5781
6.9371e+05,-64.0812
6.9397e+05,-62.5781
6.9423e+05,-61.0719
6.9449e+05,-62.5781
6.9475e+05,-64.0812
6.9501e+05,-64.0812
6.9527e+05,-64.0812
6.9553e+05,-61.0719
6.9579e+05,-58.0625
6.9605e+05,-59.5688
6.9631e+05,-61.0719
6.9657e+05,-62.5781
6.9683e+05,-64.0812
6.9709e+05,-64.0812
6.9735e+05,-64.0812
6.9761e+05,-64.0812
6.9787e+05,-64.0812
6.9813e+05,-64.0812
6.9839e+05,-64.0812
6.9865e+05,-64.0812
6.9891e+05,-64.0812
6.9917e+05,-62.5781
6.9943e+05,-61.0719
6.9969e+05,-62.5781
6.9996e+05,-64.0812
7.0022e+05,-64.0812
7.0048e+05,-64.0812
7.0074e+05,-62.5781
7.0100e+05,-61.0719
7.0126e+05,-62.5781
7.0152e+05,-64.0812
7.0178e+05,-64.0812
7.0204e+05,-64.0812
7.0230e+05,-64.0812
7.0256e+05,-64.0812
7.0282e+05,-64.0812
7.0308e+05,-64.0812
7.0334e+05,-64.0812
7.0360e+05,-64.0812
7.0386e+05,-62.5781
7.0412e+05,-61.0719
7.0438e+05,-62.5781
7.0464e+05,-64.0812
7.0490e+05,-64.0812
7.0516e+05,-64.0812
7.0542e+05,-64.0812
7.0568e+05,-64.0812
7.0594e+05,-62.5781
7.0620e+05,-61.0719
7.0647e+05,-62.5781
7.0673e+05,-64.0812
7.0699e+05,-62.5781
7.0725e+05,-61.0719
7.0751e+05,-62.5781
7.0777e+05,-64.0812
7.0803e+05,-62.5781
7.0829e+05,-61.0719
7.0855e+05,-62.5781
7.0881e+05,-64.0812
7.0907e+05,-62.5781
7.0933e+05,-61.0719
7.0959e+05,-62.5781
7.0985e+05,-64.0812
7.1011e+05,-64.0812
7.1037e+05,-64.0812
7.1063e+05,-60.5875
7.1089e+05,-57.0938
7.1115e+05,-60.5875
7.1141e+05,-64.0812
7.1167e+05,-64.0812
7.1193e+05,-64.0812
7.1219e+05,-62.5781
7.1245e+05,-61.0719
7.1271e+05,-62.5781
7.1298e+05,-64.0812
7.1324e+05,-64.0812
7.1350e+05,-64.0812
7.1376e+05,-64.0812
7.1402e+05,-64.0812
7.1428e+05,-64.0812
7.1454e+05,-64.0812
7.1480e+05,-62.5781
7.1506e+05,-61.0719
7.1532e+05,-62.5781
7.1558e+05,-64.0812
7.1584e+05,-62.5781
7.1610e+05,-61.0719
7.1636e+05,-62.5781
7.1662e+05,-64.0812
7.1688e+05,-64.0812
7.1714e+05,-64.0812
7.1740e+05,-64.0812
7.1766e+05,-64.0812
7.1792e+05,-64.0812
7.1818e+05,-64.0812
7.1844e+05,-64.0812
7.1870e+05,-64.0812
7.1896e+05,-64.0812
7.1922e+05,-64.0812
7.1949e+05,-62.5781
7.1975e+05,-61.0719
7.2001e+05,-62.5781
7.2027e+05,-64.0812
7.2053e+05,-64.0812
7.2079e+05,-64.0812
7.2105e+05,-64.0812
7.2131e+05,-64.0812
7.2157e+05,-64.0812
7.2183e+05,-64.0812
7.2209e+05,-62.5781
7.2235e+05,-61.0719
7.2261e+05,-62.5781
7.2287e+05,-64.0812
7.2313e+05,-62.5781
7.2339e+05,-61.0719
7.2365e+05,-62.5781
7.2391e+05,-64.0812
7.2417e+05,-64.0812
7.2443e+05,-64.0812
7.2469e+05,-64.0812
7.2495e+05,-64.0812
7.2521e+05,-64.0812
7.2547e+05,-64.0812
7.2573e+05,-64.0812
7.2600e+05,-64.0812
7.2626e+05,-64.0812
7.2652e+05,-64.0812
7.2678e+05,-64.0812
7.2704e+05,-64.0812
7.2730e+05,-64.0812
7.2756e+05,-64.0812
7.2782e+05,-64.0812
7.2808e+05,-64.0812
7.2834e+05,-64.0812
7.2860e+05,-64.0812
7.2886e+05,-64.0812
7.2912e+05,-64.0812
7.2938e+05,-64.0812
7.2964e+05,-64.0812
7.2990e+05,-64.0812
7.3016e+05,-64.0812
7.3042e+05,-64.0812
7.3068e+05,-64.0812
7.3094e+05,-64.0812
7.3120e+05,-64.0812
7.3146e+05,-64.0812
7.3172e+05,-64.0812
7.3198e+05,-64.0812
7.3224e+05,-64.0812
7.3251e+05,-64.0812
7.3277e+05,-64.0812
7.3303e+05,-62.5781
7.3329e+05,-61.0719
7.3355e+05,-62.5781
7.3381e+05,-64.0812
7.3407e+05,-62.5781
7.3433e+05,-61.0719
7.3459e+05,-62.5781
7.3485e+05,-64.0812
7.3511e+05,-64.0812
7.3537e+05,-64.0812
7.3563e+05,-64.0812
7.3589e+05,-64.0812
7.3615e+05,-64.0812
7.3641e+05,-64.0812
7.3667e+05,-64.0812
7.3693e+05,-64.0812
7.3719e+05,-64.0812
7.3745e+05,-64.0812
7.3771e+05,-62.5781
7.3797e+05,-61.0719
7.3823e+05,-62.5781
7.3849e+05,-64.0812
7.3875e+05,-62.5781
7.3902e+05,-61.0719
7.3928e+05,-62.5781
7.3954e+05,-64.0812
7.3980e+05,-64.0812
7.4006e+05,-64.0812
7.4032e+05,-64.0812
7.4058e+05,-64.0812
7.4084e+05,-64.0812
7.4110e+05,-64.0812
7.4136e+05,-64.0812
7.4162e+05,-64.0812
7.4188e+05,-64.0812
7.4214e+05,-64.0812
7.4240e+05,-64.0812
7.4266e+05,-64.0812
7.4292e+05,-64.0812
7.4318e+05,-64.0812
7.4344e+05,-62.5781
7.4370e+05,-61.0719
7.4396e+05,-61.0719
7.4422e+05,-61.0719
7.4448e+05,-62.5781
7.4474e+05,-64.0812
7.4500e+05,-64.0812
7.4526e+05,-64.0812
7.4553e+05,-62.5781
7.4579e+05,-61.0719
7.4605e+05,-62.5781
7.4631e+05,-64.0812
7.4657e+05,-62.5781
7.4683e+05,-61.0719
7.4709e+05,-62.5781
7.4735e+05,-64.0812
7.4761e+05,-64.0812
7.4787e+05,-64.0812
7.4813e+05,-64.0812
7.4839e+05,-64.0812
7.4865e+05,-64.0812
7.4891e+05,-64.0812
7.4917e+05,-62.5781
7.4943e+05,-61.0719
7.4969e+05,-62.5781
7.4995e+05,-64.0812
7.5021e+05,-62.5781
7.5047e+05,-61.0719
7.5073e+05,-59.0844
7.5099e+05,-57.0938
7.5125e+05,-60.5875
7.5151e+05,-64.0812
7.5177e+05,-64.0812
7.5204e+05,-64.0812
7.5230e+05,-62.5781
7.5256e+05,-61.0719
7.5282e+05,-62.5781
7.5308e+05,-64.0812
7.5334e+05,-64.0812
7.5360e+05,-64.0812
7.5386e+05,-64.0812
7.5412e+05,-64.0812
7.5438e+05,-64.0812
7.5464e+05,-64.0812
7.5490e+05,-62.5781
7.5516e+05,-61.0719
7.5542e+05,-62.5781
7.5568e+05,-64.0812
7.5594e+05,-61.0719
7.5620e+05,-58.0625
7.5646e+05,-61.0719
7.5672e+05,-64.0812
7.5698e+05,-64.0812
7.5724e+05,-64.0812
7.5750e+05,-62.5781
7.5776e+05,-61.0719
7.5802e+05,-62.5781
7.5828e+05,-64.0812
7.5855e+05,-64.0812
7.5881e+05,-64.0812
7.5907e+05,-62.5781
7.5933e+05,-61.0719
7.5959e+05,-62.5781
7.5985e+05,-64.0812
7.6011e+05,-64.0812
7.6037e+05,-64.0812
7.6063e+05,-62.5781
7.6089e+05,-61.0719
7.6115e+05,-61.0719
7.6141e+05,-61.0719
7.6167e+05,-61.0719
7.6193e+05,-61.0719
7.6219e+05,-62.5781
7.6245e+05,-64.0812
7.6271e+05,-64.0812
7.6297e+05,-64.0812
7.6323e+05,-64.0812
7.6349e+05,-64.0812
7.6375e+05,-62.5781
7.6401e+05,-61.0719
7.6427e+05,-61.0719
7.6453e+05,-61.0719
7.6479e+05,-62.5781
7.6506e+05,-64.0812
7.6532e+05,-64.0812
7.6558e+05,-64.0812
7.6584e+05,-64.0812
7.6610e+05,-64.0812
7.6636e+05,-64.0812
7.6662e+05,-64.0812
7.6688e+05,-64.0812
7.6714e+05,-64.0812
7.6740e+05,-64.0812
7.6766e+05,-64.0812
7.6792e+05,-64.0812
7.6818e+05,-64.0812
7.6844e+05,-64.0812
7.6870e+05,-64.0812
7.6896e+05,-64.0812
7.6922e+05,-64.0812
7.6948e+05,-62.5781
7.6974e+05,-61.0719
7.7000e+05,-62.5781
7.7026e+05,-64.0812
7.7052e+05,-64.0812
7.7078e+05,-64.0812
7.7104e+05,-64.0812
7.7130e+05,-64.0812
7.7157e+05,-64.0812
7.7183e+05,-64.0812
7.7209e+05,-64.0812
7.7235e+05,-64.0812
7.7261e+05,-62.5781
7.7287e+05,-61.0719
7.7313e+05,-62.5781
7.7339e+05,-64.0812
7.7365e+05,-64.0812
7.7391e+05,-64.0812
7.7417e+05,-64.0812
7.7443e+05,-64.0812
7.7469e+05,-64.0812
7.7495e+05,-64.0812
7.7521e+05,-64.0812
7.7547e+05,-64.0812
7.7573e+05,-64.0812
7.7599e+05,-64.0812
7.7625e+05,-62.5781
7.7651e+05,-61.0719
7.7677e+05,-61.0719
7.7703e+05,-61.0719
7.7729e+05,-62.5781
7.7755e+05,-64.0812
7.7781e+05,-62.5781
7.7808e+05,-61.0719
7.7834e+05,-62.5781
7.7860e+05,-64.0812
7.7886e+05,-64.0812
7.7912e+05,-64.0812
7.7938e+05,-64.0812
7.7964e+05,-64.0812
7.7990e+05,-64.0812
7.8016e+05,-64.0812
7.8042e+05,-64.0812
7.8068e+05,-64.0812
7.8094e+05,-64.0812
7.8120e+05,-64.0812
7.8146e+05,-64.0812
7.8172e+05,-64.0812
7.8198e+05,-64.0812
7.8224e+05,-64.0812
7.8250e+05,-64.0812
7.8276e+05,-64.0812
7.8302e+05,-64.0812
7.8328e+05,-64.0812
7.8354e+05,-64.0812
7.8380e+05,-64.0812
7.8406e+05,-64.0812
7.8432e+05,-64.0812
7.8459e+05,-62.5781
7.8485e+05,-61.0719
7.8511e+05,-62.5781
7.8537e+05,-64.0812
7.8563e+05,-64.0812
7.8589e+05,-64.0812
7.8615e+05,-64.0812
7.8641e+05,-64.0812
7.8667e+05,-64.0812
7.8693e+05,-64.0812
7.8719e+05,-64.0812
7.8745e+05,-64.0812
7.8771e+05,-64.0812
7.8797e+05,-64.0812
7.8823e+05,-62.5781
7.8849e+05,-61.0719
7.8875e+05,-62.5781
7.8901e+05,-64.0812
7.8927e+05,-64.0812
7.8953e+05,-64.0812
7.8979e+05,-61.0719
7.9005e+05,-58.0625
7.9031e+05,-59.5688
7.9057e+05,-61.0719
7.9083e+05,-62.5781
7.9110e+05,-64.0812
7.9136e+05,-64.0812
7.9162e+05,-64.0812
7.9188e+05,-62.5781
7.9214e+05,-61.0719
7.9240e+05,-62.5781
7.9266e+05,-64.0812
7.9292e+05,-64.0812
7.9318e+05,-64.0812
7.9344e+05,-64.0812
7.9370e+05,-64.0812
7.9396e+05,-64.0812
7.9422e+05,-64.0812
7.9448e+05,-64.0812
7.9474e+05,-64.0812
7.9500e+05,-64.0812
7.9526e+05,-64.0812
7.9552e+05,-64.0812
7.9578e+05,-64.0812
7.9604e+05,-64.0812
7.9630e+05,-64.0812
7.9656e+05,-60.5875
7.9682e+05,-57.0938
7.9708e+05,-60.5875
7.9734e+05,-64.0812
7.9761e+05,-62.5781
7.9787e+05,-61.0719
7.9813e+05,-62.5781
7.9839e+05,-64.0812
7.9865e+05,-62.5781
7.9891e+05,-61.0719
7.9917e+05,-62.5781
7.9943e+05,-64.0812
7.9969e+05,-62.5781
7.9995e+05,-61.0719
8.0021e+05,-61.0719
8.0047e+05,-61.0719
8.0073e+05,-62.5781
8.0099e+05,-64.0812
8.0125e+05,-64.0812
8.0151e+05,-64.0812
8.0177e+05,-64.0812
8.0203e+05,-64.0812
8.0229e+05,-64.0812
8.0255e+05,-64.0812
8.0281e+05,-64.0812
8.0307e+05,-64.0812
8.0333e+05,-64.0812
8.0359e+05,-64.0812
8.0385e+05,-64.0812
8.0412e+05,-64.0812
8.0438e+05,-62.5781
8.0464e+05,-61.0719
8.0490e+05,-62.5781
8.0516e+05,-64.0812
8.0542e+05,-64.0812
8.0568e+05,-64.0812
8.0594e+05,-62.5781
8.0620e+05,-61.0719
8.0646e+05,-62.5781
8.0672e+05,-64.0812
8.0698e+05,-62.5781
8.0724e+05,-61.0719
8.0750e+05,-62.5781
8.0776e+05,-64.0812
8.0802e+05,-60.5875
8.0828e+05,-57.0938
8.0854e+05,-60.5875
8.0880e+05,-64.0812
8.0906e+05,-64.0812
8.0932e+05,-64.0812
8.0958e+05,-64.0812
8.0984e+05,-64.0812
8.1010e+05,-62.5781
8.1036e+05,-61.0719
8.1063e+05,-62.5781
8.1089e+05,-64.0812
8.1115e+05,-64.0812
8.1141e+05,-64.0812
8.1167e+05,-64.0812
8.1193e+05,-64.0812
8.1219e+05,-64.0812
8.1245e+05,-64.0812
8.1271e+05,-62.5781
8.1297e+05,-61.0719
8.1323e+05,-61.0719
8.1349e+05,-61.0719
8.1375e+05,-62.5781
8.1401e+05,-64.0812
8.1427e+05,-64.0812
8.1453e+05,-64.0812
8.1479e+05,-64.0812
8.1505e+05,-64.0812
8.1531e+05,-60.5875
8.1557e+05,-57.0938
8.1583e+05,-60.5875
8.1609e+05,-64.0812
8.1635e+05,-62.5781
8.1661e+05,-61.0719
8.1687e+05,-61.0719
8.1714e+05,-61.0719
8.1740e+05,-62.5781
8.1766e+05,-64.0812
8.1792e+05,-64.0812
8.1818e+05,-64.0812
8.1844e+05,-60.5875
8.1870e+05,-57.0938
8.1896e+05,-60.5875
8.1922e+05,-64.0812
8.1948e+05,-62.5781
8.1974e+05,-61.0719
8.2000e+05,-62.5781
8.2026e+05,-64.0812
8.2052e+05,-64.0812
8.2078e+05,-64.0812
8.2104e+05,-64.0812
8.2130e+05,-64.0812
8.2156e+05,-64.0812
8.2182e+05,-64.0812
8.2208e+05,-64.0812
8.2234e+05,-64.0812
8.2260e+05,-62.5781
8.2286e+05,-61.0719
8.2312e+05,-62.5781
8.2338e+05,-64.0812
8.2365e+05,-64.0812
8.2391e+05,-64.0812
8.2417e+05,-62.5781
8.2443e+05,-61.0719
8.2469e+05,-62.5781
8.2495e+05,-64.0812
8.2521e+05,-64.0812
8.2547e+05,-64.0812
8.2573e+05,-62.5781
8.2599e+05,-61.0719
8.2625e+05,-62.5781
8.2651e+05,-64.0812
8.2677e+05,-64.0812
8.2703e+05,-64.0812
8.2729e+05,-64.0812
8.2755e+05,-64.0812
8.2781e+05,-64.0812
8.2807e+05,-64.0812
8.2833e+05,-64.0812
8.2859e+05,-64.0812
8.2885e+05,-62.5781
8.2911e+05,-61.0719
8.2937e+05,-62.5781
8.2963e+05,-64.0812
8.2989e+05,-64.0812
8.3016e+05,-64.0812
8.3042e+05,-60.5875
8.3068e+05,-57.0938
8.3094e+05,-60.5875
8.3120e+05,-64.0812
8.3146e+05,-64.0812
8.3172e+05,-64.0812
8.3198e+05,-64.0812
8.3224e+05,-64.0812
8.3250e+05,-64.0812
8.3276e+05,-64.0812
8.3302e+05,-64.0812
8.3328e+05,-64.0812
8.3354e+05,-64.0812
8.3380e+05,-64.0812
8.3406e+05,-64.0812
8.3432e+05,-64.0812
8.3458e+05,-64.0812
8.3484e+05,-64.0812
8.3510e+05,-64.0812
8.3536e+05,-64.0812
8.3562e+05,-64.0812
8.3588e+05,-64.0812
8.3614e+05,-62.5781
8.3640e+05,-61.0719
8.3667e+05,-59.0844
8.3693e+05,-57.0938
8.3719e+05,-59.0844
8.3745e+05,-61.0719
8.3771e+05,-61.0719
8.3797e+05,-61.0719
8.3823e+05,-62.5781
8.3849e+05,-64.0812
8.3875e+05,-64.0812
8.3901e+05,-64.0812
8.3927e+05,-64.0812
8.3953e+05,-64.0812
8.3979e+05,-64.0812
8.4005e+05,-64.0812
8.4031e+05,-64.0812
8.4057e+05,-64.0812
8.4083e+05,-64.0812
8.4109e+05,-64.0812
8.4135e+05,-62.5781
8.4161e+05,-61.0719
8.4187e+05,-62.5781
8.4213e+05,-64.0812
8.4239e+05,-62.5781
8.4265e+05,-61.0719
8.4291e+05,-61.0719
8.4318e+05,-61.0719
8.4344e+05,-61.0719
8.4370e+05,-61.0719
8.4396e+05,-62.5781
8.4422e+05,-64.0812
8.4448e+05,-64.0812
8.4474e+05,-64.0812
8.4500e+05,-64.0812
8.4526e+05,-64.0812
8.4552e+05,-62.5781
8.4578e+05,-61.0719
8.4604e+05,-62.5781
8.4630e+05,-64.0812
8.4656e+05,-64.0812
8.4682e+05,-64.0812
8.4708e+05,-64.0812
8.4734e+05,-64.0812
8.4760e+05,-64.0812
8.4786e+05,-64.0812
8.4812e+05,-64.0812
8.4838e+05,-64.0812
8.4864e+05,-64.0812
8.4890e+05,-64.0812
8.4916e+05,-62.5781
8.4942e+05,-61.0719
8.4969e+05,-61.0719
8.4995e+05,-61.0719
8.5021e+05,-62.5781
8.5047e+05,-64.0812
8.5073e+05,-61.0719
8.5099e+05,-58.0625
8.5125e+05,-61.0719
8.5151e+05,-64.0812
8.5177e+05,-64.0812
8.5203e+05,-64.0812
8.5229e+05,-62.5781
8.5255e+05,-61.0719
8.5281e+05,-62.5781
8.5307e+05,-64.0812
8.5333e+05,-62.5781
8.5359e+05,-61.0719
8.5385e+05,-62.5781
8.5411e+05,-64.0812
8.5437e+05,-64.0812
8.5463e+05,-64.0812
8.5489e+05,-64.0812
8.5515e+05,-64.0812
8.5541e+05,-62.5781
8.5567e+05,-61.0719
8.5593e+05,-62.5781
8.5620e+05,-64.0812
8.5646e+05,-62.5781
8.5672e+05,-61.0719
8.5698e+05,-62.5781
8.5724e+05,-64.0812
8.5750e+05,-64.0812
8.5776e+05,-64.0812
8.5802e+05,-64.0812
8.5828e+05,-64.0812
8.5854e+05,-64.0812
8.5880e+05,-64.0812
8.5906e+05,-64.0812
8.5932e+05,-64.0812
8.5958e+05,-64.0812
8.5984e+05,-64.0812
8.6010e+05,-62.5781
8.6036e+05,-61.0719
8.6062e+05,-62.5781
8.6088e+05,-64.0812
8.6114e+05,-64.0812
8.6140e+05,-64.0812
8.6166e+05,-61.0719
8.6192e+05,-58.0625
8.6218e+05,-59.5688
8.6244e+05,-61.0719
8.6271e+05,-62.5781
8.6297e+05,-64.0812
8.6323e+05,-60.5875
8.6349e+05,-57.0938
8.6375e+05,-59.0844
8.6401e+05,-61.0719
8.6427e+05,-62.5781
8.6453e+05,-64.0812
8.6479e+05,-64.0812
8.6505e+05,-64.0812
8.6531e+05,-64.0812
8.6557e+05,-64.0812
8.6583e+05,-64.0812
8.6609e+05,-64.0812
8.6635e+05,-62.5781
8.6661e+05,-61.0719
8.6687e+05,-62.5781
8.6713e+05,-64.0812
8.6739e+05,-64.0812
8.6765e+05,-64.0812
8.6791e+05,-62.5781
8.6817e+05,-61.0719
8.6843e+05,-62.5781
8.6869e+05,-64.0812
8.6895e+05,-62.5781
8.6922e+05,-61.0719
8.6948e+05,-62.5781
8.6974e+05,-64.0812
8.7000e+05,-62.5781
8.7026e+05,-61.0719
8.7052e+05,-62.5781
8.7078e+05,-64.0812
8.7104e+05,-64.0812
8.7130e+05,-64.0812
8.7156e+05,-64.0812
8.7182e+05,-64.0812
8.7208e+05,-64.0812
8.7234e+05,-64.0812
8.7260e+05,-62.5781
8.7286e+05,-61.0719
8.7312e+05,-59.5688
8.7338e+05,-58.0625
8.7364e+05,-61.0719
8.7390e+05,-64.0812
8.7416e+05,-62.5781
8.7442e+05,-61.0719
8.7468e+05,-62.5781
8.7494e+05,-64.0812
8.7520e+05,-64.0812
8.7546e+05,-64.0812
8.7573e+05,-64.0812
8.7599e+05,-64.0812
8.7625e+05,-64.0812
8.7651e+05,-64.0812
8.7677e+05,-64.0812
8.7703e+05,-64.0812
8.7729e+05,-64.0812
8.7755e+05,-64.0812
8.7781e+05,-64.0812
8.7807e+05,-64.0812
8.7833e+05,-64.0812
8.7859e+05,-64.0812
8.7885e+05,-62.5781
8.7911e+05,-61.0719
8.7937e+05,-62.5781
8.7963e+05,-64.0812
8.7989e+05,-60.5875
8.8015e+05,-57.0938
8.8041e+05,-60.5875
8.8067e+05,-64.0812
8.8093e+05,-60.5875
8.8119e+05,-57.0938
8.8145e+05,-60.5875
8.8171e+05,-64.0812
8.8197e+05,-62.5781
8.8224e+05,-61.0719
8.8250e+05,-62.5781
8.8276e+05,-64.0812
8.8302e+05,-62.5781
8.8328e+05,-61.0719
8.8354e+05,-62.5781
8.8380e+05,-64.0812
8.8406e+05,-64.0812
8.8432e+05,-64.0812
8.8458e+05,-64.0812
8.8484e+05,-64.0812
8.8510e+05,-64.0812
8.8536e+05,-64.0812
8.8562e+05,-62.5781
8.8588e+05,-61.0719
8.8614e+05,-62.5781
8.8640e+05,-64.0812
8.8666e+05,-60.5875
8.8692e+05,-57.0938
8.8718e+05,-60.5875
8.8744e+05,-64.0812
8.8770e+05,-64.0812
8.8796e+05,-64.0812
8.8822e+05,-64.0812
8.8848e+05,-64.0812
8.8875e+05,-64.0812
8.8901e+05,-64.0812
8.8927e+05,-64.0812
8.8953e+05,-64.0812
8.8979e+05,-64.0812
8.9005e+05,-64.0812
8.9031e+05,-64.0812
8.9057e+05,-64.0812
8.9083e+05,-62.5781
8.9109e+05,-61.0719
8.9135e+05,-62.5781
8.9161e+05,-64.0812
8.9187e+05,-64.0812
8.9213e+05,-64.0812
8.9239e+05,-64.0812
8.9265e+05,-64.0812
8.9291e+05,-64.0812
8.9317e+05,-64.0812
8.9343e+05,-62.5781
8.9369e+05,-61.0719
8.9395e+05,-62.5781
8.9421e+05,-64.0812
8.9447e+05,-64.0812
8.9473e+05,-64.0812
8.9499e+05,-64.0812
8.9526e+05,-64.0812
8.9552e+05,-62.5781
8.9578e+05,-61.0719
8.9604e+05,-62.5781
8.9630e+05,-64.0812
8.9656e+05,-64.0812
8.9682e+05,-64.0812
8.9708e+05,-64.0812
8.9734e+05,-64.0812
8.9760e+05,-64.0812
8.9786e+05,-64.0812
8.9812e+05,-64.0812
8.9838e+05,-64.0812
8.9864e+05,-64.0812
8.9890e+05,-64.0812
8.9916e+05,-64.0812
8.9942e+05,-64.0812
8.9968e+05,-64.0812
8.9994e+05,-64.0812
9.0020e+05,-64.0812
9.0046e+05,-64.0812
9.0072e+05,-62.5781
9.0098e+05,-61.0719
9.0124e+05,-62.5781
9.0150e+05,-64.0812
9.0177e+05,-64.0812
9.0203e+05,-64.0812
9.0229e+05,-64.0812
9.0255e+05,-64.0812
9.0281e+05,-64.0812
9.0307e+05,-64.0812
9.0333e+05,-64.0812
9.0359e+05,-64.0812
9.0385e+05,-64.0812
9.0411e+05,-64.0812
9.0437e+05,-61.0719
9.0463e+05,-58.0625
9.0489e+05,-61.0719
9.0515e+05,-64.0812
9.0541e+05,-62.5781
9.0567e+05,-61.0719
9.0593e+05,-62.5781
9.0619e+05,-64.0812
9.0645e+05,-62.5781
9.0671e+05,-61.0719
9.0697e+05,-62.5781
9.0723e+05,-64.0812
9.0749e+05,-62.5781
9.0775e+05,-61.0719
9.0801e+05,-62.5781
9.0828e+05,-64.0812
9.0854e+05,-64.0812
9.0880e+05,-64.0812
9.0906e+05,-61.0719
9.0932e+05,-58.0625
9.0958e+05,-61.0719
9.0984e+05,-64.0812
9.1010e+05,-64.0812
9.1036e+05,-64.0812
9.1062e+05,-62.5781
9.1088e+05,-61.0719
9.1114e+05,-62.5781
9.1140e+05,-64.0812
9.1166e+05,-62.5781
9.1192e+05,-61.0719
9.1218e+05,-62.5781
9.1244e+05,-64.0812
9.1270e+05,-64.0812
9.1296e+05,-64.0812
9.1322e+05,-64.0812
9.1348e+05,-64.0812
9.1374e+05,-64.0812
9.1400e+05,-64.0812
9.1426e+05,-64.0812
9.1452e+05,-64.0812
9.1479e+05,-64.0812
9.1505e+05,-64.0812
9.1531e+05,-64.0812
9.1557e+05,-64.0812
9.1583e+05,-64.0812
9.1609e+05,-64.0812
9.1635e+05,-60.5875
9.1661e+05,-57.0938
9.1687e+05,-60.5875
9.1713e+05,-64.0812
9.1739e+05,-64.0812
9.1765e+05,-64.0812
9.1791e+05,-64.0812
9.1817e+05,-64.0812
9.1843e+05,-64.0812
9.1869e+05,-64.0812
9.1895e+05,-64.0812
9.1921e+05,-64.0812
9.1947e+05,-64.0812
9.1973e+05,-64.0812
9.1999e+05,-64.0812
9.2025e+05,-64.0812
9.2051e+05,-64.0812
9.2077e+05,-64.0812
9.2103e+05,-60.5875
9.2130e+05,-57.0938
9.2156e+05,-60.5875
9.2182e+05,-64.0812
9.2208e+05,-64.0812
9.2234e+05,-64.0812
9.2260e+05,-64.0812
9.2286e+05,-64.0812
9.2312e+05,-64.0812
9.2338e+05,-64.0812
9.2364e+05,-64.0812
9.2390e+05,-64.0812
9.2416e+05,-64.0812
9.2442e+05,-64.0812
9.2468e+05,-64.0812
9.2494e+05,-64.0812
9.2520e+05,-64.0812
9.2546e+05,-64.0812
9.2572e+05,-62.5781
9.2598e+05,-61.0719
9.2624e+05,-62.5781
9.2650e+05,-64.0812
9.2676e+05,-64.0812
9.2702e+05,-64.0812
9.2728e+05,-64.0812
9.2754e+05,-64.0812
9.2781e+05,-64.0812
9.2807e+05,-64.0812
9.2833e+05,-61.0719
9.2859e+05,-58.0625
9.2885e+05,-61.0719
9.2911e+05,-64.0812
9.2937e+05,-64.0812
9.2963e+05,-64.0812
9.2989e+05,-64.0812
9.3015e+05,-64.0812
9.3041e+05,-62.5781
9.3067e+05,-61.0719
9.3093e+05,-61.0719
9.3119e+05,-61.0719
9.3145e+05,-62.5781
9.3171e+05,-64.0812
9.3197e+05,-62.5781
9.3223e+05,-61.0719
9.3249e+05,-62.5781
9.3275e+05,-64.0812
9.3301e+05,-64.0812
9.3327e+05,-64.0812
9.3353e+05,-64.0812
9.3379e+05,-64.0812
9.3405e+05,-62.5781
9.3432e+05,-61.0719
9.3458e+05,-62.5781
9.3484e+05,-64.0812
9.3510e+05,-60.5875
9.3536e+05,-57.0938
9.3562e+05,-60.5875
9.3588e+05,-64.0812
9.3614e+05,-64.0812
9.3640e+05,-64.0812
9.3666e+05,-62.5781
9.3692e+05,-61.0719
9.3718e+05,-61.0719
9.3744e+05,-61.0719
9.3770e+05,-61.0719
9.3796e+05,-61.0719
9.3822e+05,-61.0719
9.3848e+05,-61.0719
9.3874e+05,-62.5781
9.3900e+05,-64.0812
9.3926e+05,-64.0812
9.3952e+05,-64.0812
9.3978e+05,-64.0812
9.4004e+05,-64.0812
9.4030e+05,-62.5781
9.4056e+05,-61.0719
9.4083e+05,-62.5781
9.4109e+05,-64.0812
9.4135e+05,-62.5781
9.4161e+05,-61.0719
9.4187e+05,-62.5781
9.4213e+05,-64.0812
9.4239e+05,-64.0812
9.4265e+05,-64.0812
9.4291e+05,-64.0812
9.4317e+05,-64.0812
9.4343e+05,-64.0812
9.4369e+05,-64.0812
9.4395e+05,-64.0812
9.4421e+05,-64.0812
9.4447e+05,-64.0812
9.4473e+05,-64.0812
9.4499e+05,-64.0812
9.4525e+05,-64.0812
9.4551e+05,-62.5781
9.4577e+05,-61.0719
9.4603e+05,-62.5781
9.4629e+05,-64.0812
9.4655e+05,-62.5781
9.4681e+05,-61.0719
9.4707e+05,-62.5781
9.4734e+05,-64.0812
9.4760e+05,-62.5781
9.4786e+05,-61.0719
9.4812e+05,-62.5781
9.4838e+05,-64.0812
9.4864e+05,-62.5781
9.4890e+05,-61.0719
9.4916e+05,-62.5781
9.4942e+05,-64.0812
9.4968e+05,-64.0812
9.4994e+05,-64.0812
9.5020e+05,-64.0812
9.5046e+05,-64.0812
9.5072e+05,-64.0812
9.5098e+05,-64.0812
9.5124e+05,-64.0812
9.5150e+05,-64.0812
9.5176e+05,-64.0812
9.5202e+05,-64.0812
9.5228e+05,-64.0812
9.5254e+05,-64.0812
9.5280e+05,-64.0812
9.5306e+05,-64.0812
9.5332e+05,-64.0812
9.5358e+05,-64.0812
9.5385e+05,-64.0812
9.5411e+05,-64.0812
9.5437e+05,-64.0812
9.5463e+05,-64.0812
9.5489e+05,-64.0812
9.5515e+05,-64.0812
9.5541e+05,-64.0812
9.5567e+05,-64.0812
9.5593e+05,-64.0812
9.5619e+05,-64.0812
9.5645e+05,-62.5781
9.5671e+05,-61.0719
9.5697e+05,-62.5781
9.5723e+05,-64.0812
9.5749e+05,-64.0812
9.5775e+05,-64.0812
9.5801e+05,-62.5781
9.5827e+05,-61.0719
9.5853e+05,-61.0719
9.5879e+05,-61.0719
9.5905e+05,-62.5781
9.5931e+05,-64.0812
9.5957e+05,-64.0812
9.5983e+05,-64.0812
9.6009e+05,-64.0812
9.6036e+05,-64.0812
9.6062e+05,-64.0812
9.6088e+05,-64.0812
9.6114e+05,-64.0812
9.6140e+05,-64.0812
9.6166e+05,-62.5781
9.6192e+05,-61.0719
9.6218e+05,-62.5781
9.6244e+05,-64.0812
9.6270e+05,-60.5875
9.6296e+05,-57.0938
9.6322e+05,-60.5875
9.6348e+05,-64.0812
9.6374e+05,-64.0812
9.6400e+05,-64.0812
9.6426e+05,-64.0812
9.6452e+05,-64.0812
9.6478e+05,-64.0812
9.6504e+05,-64.0812
9.6530e+05,-64.0812
9.6556e+05,-64.0812
9.6582e+05,-64.0812
9.6608e+05,-64.0812
9.6634e+05,-62.5781
9.6660e+05,-61.0719
9.6687e+05,-62.5781
9.6713e+05,-64.0812
9.6739e+05,-64.0812
9.6765e+05,-64.0812
9.6791e+05,-64.0812
9.6817e+05,-64.0812
9.6843e+05,-64.0812
9.6869e+05,-64.0812
9.6895e+05,-64.0812
9.6921e+05,-64.0812
9.6947e+05,-64.0812
9.6973e+05,-64.0812
9.6999e+05,-64.0812
9.7025e+05,-64.0812
9.7051e+05,-62.5781
9.7077e+05,-61.0719
9.7103e+05,-62.5781
9.7129e+05,-64.0812
9.7155e+05,-64.0812
9.7181e+05,-64.0812
9.7207e+05,-64.0812
9.7233e+05,-64.0812
9.7259e+05,-62.5781
9.7285e+05,-61.0719
9.7311e+05,-62.5781
9.7338e+05,-64.0812
9.7364e+05,-64.0812
9.7390e+05,-64.0812
9.7416e+05,-64.0812
9.7442e+05,-64.0812
9.7468e+05,-64.0812
9.7494e+05,-64.0812
9.7520e+05,-64.0812
9.7546e+05,-64.0812
9.7572e+05,-64.0812
9.7598e+05,-64.0812
9.7624e+05,-64.0812
9.7650e+05,-64.0812
9.7676e+05,-64.0812
9.7702e+05,-64.0812
9.7728e+05,-64.0812
9.7754e+05,-64.0812
9.7780e+05,-64.0812
9.7806e+05,-64.0812
9.7832e+05,-64.0812
9.7858e+05,-64.0812
9.7884e+05,-64.0812
9.7910e+05,-64.0812
9.7936e+05,-62.5781
9.7962e+05,-61.0719
9.7989e+05,-62.5781
9.8015e+05,-64.0812
9.8041e+05,-64.0812
9.8067e+05,-64.0812
9.8093e+05,-64.0812
9.8119e+05,-64.0812
9.8145e+05,-64.0812
9.8171e+05,-64.0812
9.8197e+05,-64.0812
9.8223e+05,-64.0812
9.8249e+05,-64.0812
9.8275e+05,-64.0812
9.8301e+05,-64.0812
9.8327e+05,-64.0812
9.8353e+05,-64.0812
9.8379e+05,-64.0812
9.8405e+05,-64.0812
9.8431e+05,-64.0812
9.8457e+05,-64.0812
9.8483e+05,-64.0812
9.8509e+05,-64.0812
9.8535e+05,-64.0812
9.8561e+05,-64.0812
9.8587e+05,-64.0812
9.8613e+05,-64.0812
9.8640e+05,-64.0812
9.8666e+05,-64.0812
9.8692e+05,-64.0812
9.8718e+05,-62.5781
9.8744e+05,-61.0719
9.8770e+05,-62.5781
9.8796e+05,-64.0812
9.8822e+05,-64.0812
9.8848e+05,-64.0812
9.8874e+05,-64.0812
9.8900e+05,-64.0812
9.8926e+05,-64.0812
9.8952e+05,-64.0812
9.8978e+05,-64.0812
9.9004e+05,-64.0812
9.9030e+05,-64.0812
9.9056e+05,-64.0812
9.9082e+05,-64.0812
9.9108e+05,-64.0812
9.9134e+05,-64.0812
9.9160e+05,-64.0812
9.9186e+05,-64.0812
9.9212e+05,-64.0812
9.9238e+05,-64.0812
9.9264e+05,-64.0812
9.9291e+05,-64.0812
9.9317e+05,-64.0812
9.9343e+05,-64.0812
9.9369e+05,-64.0812
9.9395e+05,-64.0812
9.9421e+05,-64.0812
9.9447e+05,-64.0812
9.9473e+05,-64.0812
9.9499e+05,-64.0812
9.9525e+05,-64.0812
9.9551e+05,-64.0812
9.9577e+05,-64.0812
9.9603e+05,-64.0812
9.9629e+05,-64.0812
9.9655e+05,-64.0812
9.9681e+05,-64.0812
9.9707e+05,-64.0812
9.9733e+05,-64.0812
9.9759e+05,-64.0812
9.9785e+05,-64.0812
9.9811e+05,-64.0812
9.9837e+05,-64.0812
9.9863e+05,-64.0812
9.9889e+05,-64.0812
9.9915e+05,-64.0812
9.9942e+05,-64.0812
9.9968e+05,-64.0812
9.9994e+05,-64.0812
1.0002e+06,-64.0812
1.0005e+06,-64.0812
1.0007e+06,-62.5781
1.0010e+06,-61.0719
1.0012e+06,-62.5781
1.0015e+06,-64.0812
1.0018e+06,-64.0812
1.0020e+06,-64.0812
1.0023e+06,-64.0812
1.0025e+06,-64.0812
1.0028e+06,-64.0812
1.0031e+06,-64.0812
1.0033e+06,-62.5781
1.0036e+06,-61.0719
1.0038e+06,-62.5781
1.0041e+06,-64.0812
1.0044e+06,-64.0812
1.0046e+06,-64.0812
1.0049e+06,-64.0812
1.0051e+06,-64.0812
1.0054e+06,-64.0812
1.0057e+06,-64.0812
1.0059e+06,-64.0812
1.0062e+06,-64.0812
1.0064e+06,-64.0812
1.0067e+06,-64.0812
1.0070e+06,-62.5781
1.0072e+06,-61.0719
1.0075e+06,-62.5781
1.0077e+06,-64.0812
1.0080e+06,-64.0812
1.0083e+06,-64.0812
1.0085e+06,-64.0812
1.0088e+06,-64.0812
1.0091e+06,-64.0812
1.0093e+06,-64.0812
1.0096e+06,-64.0812
1.0098e+06,-64.0812
1.0101e+06,-62.5781
1.0104e+06,-61.0719
1.0106e+06,-62.5781
1.0109e+06,-64.0812
1.0111e+06,-64.0812
1.0114e+06,-64.0812
1.0117e+06,-64.0812
1.0119e+06,-64.0812
1.0122e+06,-60.5875
1.0124e+06,-57.0938
1.0127e+06,-60.5875
1.0130e+06,-64.0812
1.0132e+06,-64.0812
1.0135e+06,-64.0812
1.0137e+06,-60.5875
1.0140e+06,-57.0938
1.0143e+06,-59.0844
1.0145e+06,-61.0719
1.0148e+06,-62.5781
1.0150e+06,-64.0812
1.0153e+06,-64.0812
1.0156e+06,-64.0812
1.0158e+06,-64.0812
1.0161e+06,-64.0812
1.0163e+06,-64.0812
1.0166e+06,-64.0812
1.0169e+06,-64.0812
1.0171e+06,-64.0812
1.0174e+06,-64.0812
1.0176e+06,-64.0812
1.0179e+06,-64.0812
1.0182e+06,-64.0812
1.0184e+06,-64.0812
1.0187e+06,-64.0812
1.0189e+06,-64.0812
1.0192e+06,-64.0812
1.0195e+06,-62.5781
1.0197e+06,-61.0719
1.0200e+06,-62.5781
1.0202e+06,-64.0812
1.0205e+06,-64.0812
1.0208e+06,-64.0812
1.0210e+06,-62.5781
1.0213e+06,-61.0719
1.0215e+06,-62.5781
1.0218e+06,-64.0812
1.0221e+06,-64.0812
1.0223e+06,-64.0812
1.0226e+06,-64.0812
1.0229e+06,-64.0812
1.0231e+06,-64.0812
1.0234e+06,-64.0812
1.0236e+06,-64.0812
1.0239e+06,-64.0812
1.0242e+06,-64.0812
1.0244e+06,-64.0812
1.0247e+06,-64.0812
1.0249e+06,-64.0812
1.0252e+06,-64.0812
1.0255e+06,-64.0812
1.0257e+06,-64.0812
1.0260e+06,-64.0812
1.0262e+06,-64.0812
1.0265e+06,-64.0812
1.0268e+06,-64.0812
1.0270e+06,-64.0812
1.0273e+06,-64.0812
1.0275e+06,-64.0812
1.0278e+06,-64.0812
1.0281e+06,-64.0812
1.0283e+06,-64.0812
1.0286e+06,-64.0812
1.0288e+06,-64.0812
1.0291e+06,-64.0812
1.0294e+06,-64.0812
1.0296e+06,-64.0812
1.0299e+06,-64.0812
1.0301e+06,-64.0812
1.0304e+06,-64.0812
1.0307e+06,-64.0812
1.0309e+06,-62.5781
1.0312e+06,-61.0719
1.0314e+06,-62.5781
1.0317e+06,-64.0812
1.0320e+06,-64.0812
1.0322e+06,-64.0812
1.0325e+06,-64.0812
1.0327e+06,-64.0812
1.0330e+06,-64.0812
1.0333e+06,-64.0812
1.0335e+06,-64.0812
1.0338e+06,-64.0812
1.0340e+06,-62.5781
1.0343e+06,-61.0719
1.0346e+06,-62.5781
1.0348e+06,-64.0812
1.0351e+06,-62.5781
1.0354e+06,-61.0719
1.0356e+06,-62.5781
1.0359e+06,-64.0812
1.0361e+06,-64.0812
1.0364e+06,-64.0812
1.0367e+06,-64.0812
1.0369e+06,-64.0812
1.0372e+06,-62.5781
1.0374e+06,-61.0719
1.0377e+06,-62.5781
1.0380e+06,-64.0812
1.0382e+06,-64.0812
1.0385e+06,-64.0812
1.0387e+06,-62.5781
1.0390e+06,-61.0719
1.0393e+06,-62.5781
1.0395e+06,-64.0812
1.0398e+06,-64.0812
1.0400e+06,-64.0812
1.0403e+06,-62.5781
1.0406e+06,-61.0719
1.0408e+06,-62.5781
1.0411e+06,-64.0812
1.0413e+06,-64.0812
1.0416e+06,-64.0812
1.0419e+06,-62.5781
1.0421e+06,-61.0719
1.0424e+06,-62.5781
1.0426e+06,-64.0812
1.0429e+06,-64.0812
1.0432e+06,-64.0812
1.0434e+06,-64.0812
1.0437e+06,-64.0812
1.0439e+06,-64.0812
1.0442e+06,-64.0812
1.0445e+06,-64.0812
1.0447e+06,-64.0812
1.0450e+06,-62.5781
1.0452e+06,-61.0719
1.0455e+06,-61.0719
1.0458e+06,-61.0719
1.0460e+06,-61.0719
1.0463e+06,-61.0719
1.0465e+06,-61.0719
1.0468e+06,-61.0719
1.0471e+06,-61.0719
1.0473e+06,-61.0719
1.0476e+06,-62.5781
1.0478e+06,-64.0812
1.0481e+06,-64.0812
1.0484e+06,-64.0812
1.0486e+06,-62.5781
1.0489e+06,-61.0719
1.0492e+06,-59.5688
1.0494e+06,-58.0625
1.0497e+06,-61.0719
1.0499e+06,-64.0812
1.0502e+06,-64.0812
1.0505e+06,-64.0812
1.0507e+06,-64.0812
1.0510e+06,-64.0812
1.0512e+06,-64.0812
1.0515e+06,-64.0812
1.0518e+06,-62.5781
1.0520e+06,-61.0719
1.0523e+06,-62.5781
1.0525e+06,-64.0812
1.0528e+06,-64.0812
1.0531e+06,-64.0812
1.0533e+06,-62.5781
1.0536e+06,-61.0719
1.0538e+06,-62.5781
1.0541e+06,-64.0812
1.0544e+06,-62.5781
1.0546e+06,-61.0719
1.0549e+06,-62.5781
1.0551e+06,-64.0812
1.0554e+06,-64.0812
1.0557e+06,-64.0812
1.0559e+06,-64.0812
1.0562e+06,-64.0812
1.0564e+06,-64.0812
1.0567e+06,-64.0812
1.0570e+06,-64.0812
1.0572e+06,-64.0812
1.0575e+06,-62.5781
1.0577e+06,-61.0719
1.0580e+06,-61.0719
1.0583e+06,-61.0719
1.0585e+06,-62.5781
1.0588e+06,-64.0812
1.0590e+06,-64.0812
1.0593e+06,-64.0812
1.0596e+06,-62.5781
1.0598e+06,-61.0719
1.0601e+06,-61.0719
1.0603e+06,-61.0719
1.0606e+06,-62.5781
1.0609e+06,-64.0812
1.0611e+06,-64.0812
1.0614e+06,-64.0812
1.0617e+06,-64.0812
1.0619e+06,-64.0812
1.0622e+06,-64.0812
1.0624e+06,-64.0812
1.0627e+06,-60.5875
1.0630e+06,-57.0938
1.0632e+06,-60.5875
1.0635e+06,-64.0812
1.0637e+06,-62.5781
1.0640e+06,-61.0719
1.0643e+06,-62.5781
1.0645e+06,-64.0812
1.0648e+06,-64.0812
1.0650e+06,-64.0812
1.0653e+06,-64.0812
1.0656e+06,-64.0812
1.0658e+06,-64.0812
1.0661e+06,-64.0812
1.0663e+06,-64.0812
1.0666e+06,-64.0812
1.0669e+06,-62.5781
1.0671e+06,-61.0719
1.0674e+06,-62.5781
1.0676e+06,-64.0812
1.0679e+06,-62.5781
1.0682e+06,-61.0719
1.0684e+06,-62.5781
1.0687e+06,-64.0812
1.0689e+06,-64.0812
1.0692e+06,-64.0812
1.0695e+06,-62.5781
1.0697e+06,-61.0719
1.0700e+06,-62.5781
1.0702e+06,-64.0812
1.0705e+06,-64.0812
1.0708e+06,-64.0812
1.0710e+06,-64.0812
1.0713e+06,-64.0812
1.0715e+06,-64.0812
1.0718e+06,-64.0812
1.0721e+06,-64.0812
1.0723e+06,-64.0812
1.0726e+06,-62.5781
1.0728e+06,-61.0719
1.0731e+06,-62.5781
1.0734e+06,-64.0812
1.0736e+06,-60.5875
1.0739e+06,-57.0938
1.0742e+06,-60.5875
1.0744e+06,-64.0812
1.0747e+06,-64.0812
1.0749e+06,-64.0812
1.0752e+06,-64.0812
1.0755e+06,-64.0812
1.0757e+06,-64.0812
1.0760e+06,-64.0812
1.0762e+06,-60.5875
1.0765e+06,-57.0938
1.0768e+06,-60.5875
1.0770e+06,-64.0812
1.0773e+06,-64.0812
1.0775e+06,-64.0812
1.0778e+06,-64.0812
1.0781e+06,-64.0812
1.0783e+06,-64.0812
1.0786e+06,-64.0812
1.0788e+06,-64.0812
1.0791e+06,-64.0812
1.0794e+06,-64.0812
1.0796e+06,-64.0812
1.0799e+06,-64.0812
1.0801e+06,-64.0812
1.0804e+06,-64.0812
1.0807e+06,-64.0812
1.0809e+06,-62.5781
1.0812e+06,-61.0719
1.0814e+06,-62.5781
1.0817e+06,-64.0812
1.0820e+06,-64.0812
1.0822e+06,-64.0812
1.0825e+06,-64.0812
1.0827e+06,-64.0812
1.0830e+06,-59.0812
1.0833e+06,-54.0812
1.0835e+06,-57.5781
1.0838e+06,-61.0719
1.0840e+06,-61.0719
1.0843e+06,-61.0719
1.0846e+06,-62.5781
1.0848e+06,-64.0812
1.0851e+06,-60.5875
1.0853e+06,-57.0938
1.0856e+06,-60.5875
1.0859e+06,-64.0812
1.0861e+06,-64.0812
1.0864e+06,-64.0812
1.0866e+06,-62.5781
1.0869e+06,-61.0719
1.0872e+06,-62.5781
1.0874e+06,-64.0812
1.0877e+06,-60.5875
1.0880e+06,-57.0938
1.0882e+06,-60.5875
1.0885e+06,-64.0812
1.0887e+06,-62.5781
1.0890e+06,-61.0719
1.0893e+06,-62.5781
1.0895e+06,-64.0812
1.0898e+06,-64.0812
1.0900e+06,-64.0812
1.0903e+06,-64.0812
1.0906e+06,-64.0812
1.0908e+06,-64.0812
1.0911e+06,-64.0812
1.0913e+06,-64.0812
1.0916e+06,-64.0812
1.0919e+06,-64.0812
1.0921e+06,-64.0812
1.0924e+06,-64.0812
1.0926e+06,-64.0812
1.0929e+06,-62.5781
1.0932e+06,-61.0719
1.0934e+06,-62.5781
1.0937e+06,-64.0812
1.0939e+06,-62.5781
1.0942e+06,-61.0719
1.0945e+06,-62.5781
1.0947e+06,-64.0812
1.0950e+06,-64.0812
1.0952e+06,-64.0812
1.0955e+06,-62.5781
1.0958e+06,-61.0719
1.0960e+06,-62.5781
1.0963e+06,-64.0812
1.0965e+06,-64.0812
1.0968e+06,-64.0812
1.0971e+06,-62.5781
1.0973e+06,-61.0719
1.0976e+06,-62.5781
1.0978e+06,-64.0812
1.0981e+06,-64.0812
1.0984e+06,-64.0812
1.0986e+06,-64.0812
1.0989e+06,-64.0812
1.0991e+06,-62.5781
1.0994e+06,-61.0719
1.0997e+06,-61.0719
1.0999e+06,-61.0719
1.1002e+06,-62.5781
1.1005e+06,-64.0812
1.1007e+06,-64.0812
1.1010e+06,-64.0812
1.1012e+06,-64.0812
1.1015e+06,-64.0812
1.1018e+06,-61.0719
1.1020e+06,-58.0625
1.1023e+06,-59.5688
1.1025e+06,-61.0719
1.1028e+06,-62.5781
1.1031e+06,-64.0812
1.1033e+06,-64.0812
1.1036e+06,-64.0812
1.1038e+06,-64.0812
1.1041e+06,-64.0812
1.1044e+06,-64.0812
1.1046e+06,-64.0812
1.1049e+06,-62.5781
1.1051e+06,-61.0719
1.1054e+06,-62.5781
1.1057e+06,-64.0812
1.1059e+06,-64.0812
1.1062e+06,-64.0812
1.1064e+06,-64.0812
1.1067e+06,-64.0812
1.1070e+06,-64.0812
1.1072e+06,-64.0812
1.1075e+06,-64.0812
1.1077e+06,-64.0812
1.1080e+06,-64.0812
1.1083e+06,-64.0812
1.1085e+06,-62.5781
1.1088e+06,-61.0719
1.1090e+06,-62.5781
1.1093e+06,-64.0812
1.1096e+06,-62.5781
1.1098e+06,-61.0719
1.1101e+06,-61.0719
1.1103e+06,-61.0719
1.1106e+06,-62.5781
1.1109e+06,-64.0812
1.1111e+06,-64.0812
1.1114e+06,-64.0812
1.1116e+06,-62.5781
1.1119e+06,-61.0719
1.1122e+06,-62.5781
1.1124e+06,-64.0812
1.1127e+06,-64.0812
1.1129e+06,-64.0812
1.1132e+06,-64.0812
1.1135e+06,-64.0812
1.1137e+06,-64.0812
1.1140e+06,-64.0812
1.1143e+06,-62.5781
1.1145e+06,-61.0719
1.1148e+06,-62.5781
1.1150e+06,-64.0812
1.1153e+06,-64.0812
1.1156e+06,-64.0812
1.1158e+06,-62.5781
1.1161e+06,-61.0719
1.1163e+06,-62.5781
1.1166e+06,-64.0812
1.1169e+06,-62.5781
1.1171e+06,-61.0719
1.1174e+06,-62.5781
1.1176e+06,-64.0812
1.1179e+06,-64.0812
1.1182e+06,-64.0812
1.1184e+06,-64.0812
1.1187e+06,-64.0812
1.1189e+06,-62.5781
1.1192e+06,-61.0719
1.1195e+06,-62.5781
1.1197e+06,-64.0812
1.1200e+06,-64.0812
1.1202e+06,-64.0812
1.1205e+06,-64.0812
1.1208e+06,-64.0812
1.1210e+06,-62.5781
1.1213e+06,-61.0719
1.1215e+06,-62.5781
1.1218e+06,-64.0812
1.1221e+06,-64.0812
1.1223e+06,-64.0812
1.1226e+06,-62.5781
1.1228e+06,-61.0719
1.1231e+06,-62.5781
1.1234e+06,-64.0812
1.1236e+06,-64.0812
1.1239e+06,-64.0812
1.1241e+06,-62.5781
1.1244e+06,-61.0719
1.1247e+06,-62.5781
1.1249e+06,-64.0812
1.1252e+06,-64.0812
1.1254e+06,-64.0812
1.1257e+06,-62.5781
1.1260e+06,-61.0719
1.1262e+06,-62.5781
1.1265e+06,-64.0812
1.1268e+06,-62.5781
1.1270e+06,-61.0719
1.1273e+06,-62.5781
1.1275e+06,-64.0812
1.1278e+06,-61.0719
1.1281e+06,-58.0625
1.1283e+06,-61.0719
1.1286e+06,-64.0812
1.1288e+06,-62.5781
1.1291e+06,-61.0719
1.1294e+06,-62.5781
1.1296e+06,-64.0812
1.1299e+06,-64.0812
1.1301e+06,-64.0812
1.1304e+06,-64.0812
1.1307e+06,-64.0812
1.1309e+06,-64.0812
1.1312e+06,-64.0812
1.1314e+06,-64.0812
1.1317e+06,-64.0812
1.1320e+06,-64.0812
1.1322e+06,-64.0812
1.1325e+06,-60.5875
1.1327e+06,-57.0938
1.1330e+06,-60.5875
1.1333e+06,-64.0812
1.1335e+06,-64.0812
1.1338e+06,-64.0812
1.1340e+06,-64.0812
1.1343e+06,-64.0812
1.1346e+06,-64.0812
1.1348e+06,-64.0812
1.1351e+06,-64.0812
1.1353e+06,-64.0812
1.1356e+06,-64.0812
1.1359e+06,-64.0812
1.1361e+06,-64.0812
1.1364e+06,-64.0812
1.1366e+06,-64.0812
1.1369e+06,-64.0812
1.1372e+06,-62.5781
1.1374e+06,-61.0719
1.1377e+06,-62.5781
1.1379e+06,-64.0812
1.1382e+06,-64.0812
1.1385e+06,-64.0812
1.1387e+06,-64.0812
1.1390e+06,-64.0812
1.1393e+06,-64.0812
1.1395e+06,-64.0812
1.1398e+06,-64.0812
1.1400e+06,-64.0812
1.1403e+06,-64.0812
1.1406e+06,-64.0812
1.1408e+06,-64.0812
1.1411e+06,-64.0812
1.1413e+06,-64.0812
1.1416e+06,-64.0812
1.1419e+06,-62.5781
1.1421e+06,-61.0719
1.1424e+06,-62.5781
1.1426e+06,-64.0812
1.1429e+06,-64.0812
1.1432e+06,-64.0812
1.1434e+06,-64.0812
1.1437e+06,-64.0812
1.1439e+06,-62.5781
1.1442e+06,-61.0719
1.1445e+06,-62.5781
1.1447e+06,-64.0812
1.1450e+06,-64.0812
1.1452e+06,-64.0812
1.1455e+06,-64.0812
1.1458e+06,-64.0812
1.1460e+06,-62.5781
1.1463e+06,-61.0719
1.1465e+06,-62.5781
1.1468e+06,-64.0812
1.1471e+06,-64.0812
1.1473e+06,-64.0812
1.1476e+06,-64.0812
1.1478e+06,-64.0812
1.1481e+06,-62.5781
1.1484e+06,-61.0719
1.1486e+06,-61.0719
1.1489e+06,-61.0719
1.1491e+06,-62.5781
1.1494e+06,-64.0812
1.1497e+06,-62.5781
1.1499e+06,-61.0719
1.1502e+06,-62.5781
1.1504e+06,-64.0812
1.1507e+06,-64.0812
1.1510e+06,-64.0812
1.1512e+06,-62.5781
1.1515e+06,-61.0719
1.1517e+06,-61.0719
1.1520e+06,-61.0719
1.1523e+06,-62.5781
1.1525e+06,-64.0812
1.1528e+06,-64.0812
1.1531e+06,-64.0812
1.1533e+06,-64.0812
1.1536e+06,-64.0812
1.1538e+06,-64.0812
1.1541e+06,-64.0812
1.1544e+06,-62.5781
1.1546e+06,-61.0719
1.1549e+06,-62.5781
1.1551e+06,-64.0812
1.1554e+06,-64.0812
1.1557e+06,-64.0812
1.1559e+06,-64.0812
1.1562e+06,-64.0812
1.1564e+06,-64.0812
1.1567e+06,-64.0812
1.1570e+06,-64.0812
1.1572e+06,-64.0812
1.1575e+06,-64.0812
1.1577e+06,-64.0812
1.1580e+06,-64.0812
1.1583e+06,-64.0812
1.1585e+06,-64.0812
1.1588e+06,-64.0812
1.1590e+06,-64.0812
1.1593e+06,-64.0812
1.1596e+06,-62.5781
1.1598e+06,-61.0719
1.1601e+06,-59.5688
1.1603e+06,-58.0625
1.1606e+06,-61.0719
1.1609e+06,-64.0812
1.1611e+06,-64.0812
1.1614e+06,-64.0812
1.1616e+06,-64.0812
1.1619e+06,-64.0812
1.1622e+06,-64.0812
1.1624e+06,-64.0812
1.1627e+06,-64.0812
1.1629e+06,-64.0812
1.1632e+06,-62.5781
1.1635e+06,-61.0719
1.1637e+06,-62.5781
1.1640e+06,-64.0812
1.1642e+06,-62.5781
1.1645e+06,-61.0719
1.1648e+06,-62.5781
1.1650e+06,-64.0812
1.1653e+06,-62.5781
1.1656e+06,-61.0719
1.1658e+06,-62.5781
1.1661e+06,-64.0812
1.1663e+06,-64.0812
1.1666e+06,-64.0812
1.1669e+06,-64.0812
1.1671e+06,-64.0812
1.1674e+06,-64.0812
1.1676e+06,-64.0812
1.1679e+06,-64.0812
1.1682e+06,-64.0812
1.1684e+06,-64.0812
1.1687e+06,-64.0812
1.1689e+06,-62.5781
1.1692e+06,-61.0719
1.1695e+06,-62.5781
1.1697e+06,-64.0812
1.1700e+06,-64.0812
1.1702e+06,-64.0812
1.1705e+06,-64.0812
1.1708e+06,-64.0812
1.1710e+06,-64.0812
1.1713e+06,-64.0812
1.1715e+06,-62.5781
1.1718e+06,-61.0719
1.1721e+06,-62.5781
1.1723e+06,-64.0812
1.1726e+06,-64.0812
1.1728e+06,-64.0812
1.1731e+06,-64.0812
1.1734e+06,-64.0812
1.1736e+06,-64.0812
1.1739e+06,-64.0812
1.1741e+06,-64.0812
1.1744e+06,-64.0812
1.1747e+06,-62.5781
1.1749e+06,-61.0719
1.1752e+06,-62.5781
1.1754e+06,-64.0812
1.1757e+06,-64.0812
1.1760e+06,-64.0812
1.1762e+06,-62.5781
1.1765e+06,-61.0719
1.1767e+06,-62.5781
1.1770e+06,-64.0812
1.1773e+06,-64.0812
1.1775e+06,-64.0812
1.1778e+06,-64.0812
1.1780e+06,-64.0812
1.1783e+06,-64.0812
1.1786e+06,-64.0812
1.1788e+06,-64.0812
1.1791e+06,-64.0812
1.1794e+06,-64.0812
1.1796e+06,-64.0812
1.1799e+06,-64.0812
1.1801e+06,-64.0812
1.1804e+06,-64.0812
1.1807e+06,-64.0812
1.1809e+06,-62.5781
1.1812e+06,-61.0719
1.1814e+06,-62.5781
1.1817e+06,-64.0812
1.1820e+06,-62.5781
1.1822e+06,-61.0719
1.1825e+06,-62.5781
1.1827e+06,-64.0812
1.1830e+06,-64.0812
1.1833e+06,-64.0812
1.1835e+06,-64.0812
1.1838e+06,-64.0812
1.1840e+06,-64.0812
1.1843e+06,-64.0812
1.1846e+06,-62.5781
1.1848e+06,-61.0719
1.1851e+06,-62.5781
1.1853e+06,-64.0812
1.1856e+06,-64.0812
1.1859e+06,-64.0812
1.1861e+06,-62.5781
1.1864e+06,-61.0719
1.1866e+06,-62.5781
1.1869e+06,-64.0812
1.1872e+06,-64.0812
1.1874e+06,-64.0812
1.1877e+06,-64.0812
1.1879e+06,-64.0812
1.1882e+06,-62.5781
1.1885e+06,-61.0719
1.1887e+06,-62.5781
1.1890e+06,-64.0812
1.1892e+06,-64.0812
1.1895e+06,-64.0812
1.1898e+06,-62.5781
1.1900e+06,-61.0719
1.1903e+06,-62.5781
1.1905e+06,-64.0812
1.1908e+06,-64.0812
1.1911e+06,-64.0812
1.1913e+06,-64.0812
1.1916e+06,-64.0812
1.1919e+06,-64.0812
1.1921e+06,-64.0812
1.1924e+06,-64.0812
1.1926e+06,-64.0812
1.1929e+06,-64.0812
1.1932e+06,-64.0812
1.1934e+06,-62.5781
1.1937e+06,-61.0719
1.1939e+06,-62.5781
1.1942e+06,-64.0812
1.1945e+06,-64.0812
1.1947e+06,-64.0812
1.1950e+06,-64.0812
1.1952e+06,-64.0812
1.1955e+06,-62.5781
1.1958e+06,-61.0719
1.1960e+06,-59.0844
1.1963e+06,-57.0938
1.1965e+06,-60.5875
1.1968e+06,-64.0812
1.1971e+06,-64.0812
1.1973e+06,-64.0812
1.1976e+06,-64.0812
1.1978e+06,-64.0812
1.1981e+06,-62.5781
1.1984e+06,-61.0719
1.1986e+06,-61.0719
1.1989e+06,-61.0719
1.1991e+06,-62.5781
1.1994e+06,-64.0812
1.1997e+06,-64.0812
1.1999e+06,-64.0812
1.2002e+06,-64.0812
1.2004e+06,-64.0812
1.2007e+06,-64.0812
1.2010e+06,-64.0812
1.2012e+06,-62.5781
1.2015e+06,-61.0719
1.2017e+06,-62.5781
1.2020e+06,-64.0812
1.2023e+06,-64.0812
1.2025e+06,-64.0812
1.2028e+06,-62.5781
1.2030e+06,-61.0719
1.2033e+06,-62.5781
1.2036e+06,-64.0812
1.2038e+06,-64.0812
1.2041e+06,-64.0812
1.2044e+06,-62.5781
1.2046e+06,-61.0719
1.2049e+06,-62.5781
1.2051e+06,-64.0812
1.2054e+06,-62.5781
1.2057e+06,-61.0719
1.2059e+06,-62.5781
1.2062e+06,-64.0812
1.2064e+06,-62.5781
1.2067e+06,-61.0719
1.2070e+06,-62.5781
1.2072e+06,-64.0812
1.2075e+06,-62.5781
1.2077e+06,-61.0719
1.2080e+06,-61.0719
1.2083e+06,-61.0719
1.2085e+06,-62.5781
1.2088e+06,-64.0812
1.2090e+06,-64.0812
1.2093e+06,-64.0812
1.2096e+06,-62.5781
1.2098e+06,-61.0719
1.2101e+06,-62.5781
1.2103e+06,-64.0812
1.2106e+06,-64.0812
1.2109e+06,-64.0812
1.2111e+06,-62.5781
1.2114e+06,-61.0719
1.2116e+06,-62.5781
1.2119e+06,-64.0812
1.2122e+06,-62.5781
1.2124e+06,-61.0719
1.2127e+06,-62.5781
1.2129e+06,-64.0812
1.2132e+06,-64.0812
1.2135e+06,-64.0812
1.2137e+06,-64.0812
1.2140e+06,-64.0812
1.2142e+06,-64.0812
1.2145e+06,-64.0812
1.2148e+06,-64.0812
1.2150e+06,-64.0812
1.2153e+06,-64.0812
1.2155e+06,-64.0812
1.2158e+06,-62.5781
1.2161e+06,-61.0719
1.2163e+06,-62.5781
1.2166e+06,-64.0812
1.2168e+06,-64.0812
1.2171e+06,-64.0812
1.2174e+06,-64.0812
1.2176e+06,-64.0812
1.2179e+06,-64.0812
1.2182e+06,-64.0812
1.2184e+06,-64.0812
1.2187e+06,-64.0812
1.2189e+06,-60.5875
1.2192e+06,-57.0938
1.2195e+06,-60.5875
1.2197e+06,-64.0812
1.2200e+06,-62.5781
1.2202e+06,-61.0719
1.2205e+06,-62.5781
1.2208e+06,-64.0812
1.2210e+06,-64.0812
1.2213e+06,-64.0812
1.2215e+06,-61.0719
1.2218e+06,-58.0625
1.2221e+06,-61.0719
1.2223e+06,-64.0812
1.2226e+06,-64.0812
1.2228e+06,-64.0812
1.2231e+06,-62.5781
1.2234e+06,-61.0719
1.2236e+06,-62.5781
1.2239e+06,-64.0812
1.2241e+06,-62.5781
1.2244e+06,-61.0719
1.2247e+06,-62.5781
1.2249e+06,-64.0812
1.2252e+06,-64.0812
1.2254e+06,-64.0812
1.2257e+06,-64.0812
1.2260e+06,-64.0812
1.2262e+06,-64.0812
1.2265e+06,-64.0812
1.2267e+06,-64.0812
1.2270e+06,-64.0812
1.2273e+06,-64.0812
1.2275e+06,-64.0812
1.2278e+06,-64.0812
1.2280e+06,-64.0812
1.2283e+06,-60.5875
1.2286e+06,-57.0938
1.2288e+06,-60.5875
1.2291e+06,-64.0812
1.2293e+06,-64.0812
1.2296e+06,-64.0812
1.2299e+06,-64.0812
1.2301e+06,-64.0812
1.2304e+06,-64.0812
1.2307e+06,-64.0812
1.2309e+06,-64.0812
1.2312e+06,-64.0812
1.2314e+06,-64.0812
1.2317e+06,-64.0812
1.2320e+06,-59.5688
1.2322e+06,-55.0531
1.2325e+06,-59.5688
1.2327e+06,-64.0812
1.2330e+06,-62.5781
1.2333e+06,-61.0719
1.2335e+06,-62.5781
1.2338e+06,-64.0812
1.2340e+06,-64.0812
1.2343e+06,-64.0812
1.2346e+06,-64.0812
1.2348e+06,-64.0812
1.2351e+06,-62.5781
1.2353e+06,-61.0719
1.2356e+06,-62.5781
1.2359e+06,-64.0812
1.2361e+06,-64.0812
1.2364e+06,-64.0812
1.2366e+06,-64.0812
1.2369e+06,-64.0812
1.2372e+06,-61.0719
1.2374e+06,-58.0625
1.2377e+06,-61.0719
1.2379e+06,-64.0812
1.2382e+06,-64.0812
1.2385e+06,-64.0812
1.2387e+06,-62.5781
1.2390e+06,-61.0719
1.2392e+06,-62.5781
1.2395e+06,-64.0812
1.2398e+06,-64.0812
1.2400e+06,-64.0812
1.2403e+06,-64.0812
1.2405e+06,-64.0812
1.2408e+06,-64.0812
1.2411e+06,-64.0812
1.2413e+06,-64.0812
1.2416e+06,-64.0812
1.2418e+06,-64.0812
1.2421e+06,-64.0812
1.2424e+06,-62.5781
1.2426e+06,-61.0719
1.2429e+06,-62.5781
1.2431e+06,-64.0812
1.2434e+06,-64.0812
1.2437e+06,-64.0812
1.2439e+06,-64.0812
1.2442e+06,-64.0812
1.2445e+06,-64.0812
1.2447e+06,-64.0812
1.2450e+06,-64.0812
1.2452e+06,-64.0812
1.2455e+06,-62.5781
1.2458e+06,-61.0719
1.2460e+06,-62.5781
1.2463e+06,-64.0812
1.2465e+06,-64.0812
1.2468e+06,-64.0812
1.2471e+06,-64.0812
1.2473e+06,-64.0812
1.2476e+06,-62.5781
1.2478e+06,-61.0719
1.2481e+06,-62.5781
1.2484e+06,-64.0812
1.2486e+06,-62.5781
1.2489e+06,-61.0719
1.2491e+06,-62.5781
1.2494e+06,-64.0812
1.2497e+06,-64.0812
1.2499e+06,-64.0812
1.2502e+06,-64.0812
1.2504e+06,-64.0812
1.2507e+06,-64.0812
1.2510e+06,-64.0812
1.2512e+06,-64.0812
1.2515e+06,-64.0812
1.2517e+06,-64.0812
1.2520e+06,-64.0812
1.2523e+06,-64.0812
1.2525e+06,-64.0812
1.2528e+06,-64.0812
1.2530e+06,-64.0812
1.2533e+06,-64.0812
1.2536e+06,-64.0812
1.2538e+06,-64.0812
1.2541e+06,-64.0812
1.2543e+06,-64.0812
1.2546e+06,-64.0812
1.2549e+06,-64.0812
1.2551e+06,-64.0812
1.2554e+06,-60.5875
1.2556e+06,-57.0938
1.2559e+06,-59.0844
1.2562e+06,-61.0719
1.2564e+06,-62.5781
1.2567e+06,-64.0812
1.2570e+06,-64.0812
1.2572e+06,-64.0812
1.2575e+06,-64.0812
1.2577e+06,-64.0812
1.2580e+06,-62.5781
1.2583e+06,-61.0719
1.2585e+06,-62.5781
1.2588e+06,-64.0812
1.2590e+06,-62.5781
1.2593e+06,-61.0719
1.2596e+06,-62.5781
1.2598e+06,-64.0812
1.2601e+06,-62.5781
1.2603e+06,-61.0719
1.2606e+06,-62.5781
1.2609e+06,-64.0812
1.2611e+06,-62.5781
1.2614e+06,-61.0719
1.2616e+06,-62.5781
1.2619e+06,-64.0812
1.2622e+06,-62.5781
1.2624e+06,-61.0719
1.2627e+06,-62.5781
1.2629e+06,-64.0812
1.2632e+06,-64.0812
1.2635e+06,-64.0812
1.2637e+06,-64.0812
1.2640e+06,-64.0812
1.2642e+06,-64.0812
1.2645e+06,-64.0812
1.2648e+06,-64.0812
1.2650e+06,-64.0812
1.2653e+06,-64.0812
1.2655e+06,-64.0812
1.2658e+06,-64.0812
1.2661e+06,-64.0812
1.2663e+06,-64.0812
1.2666e+06,-64.0812
1.2668e+06,-60.5875
1.2671e+06,-57.0938
1.2674e+06,-60.5875
1.2676e+06,-64.0812
1.2679e+06,-61.0719
1.2681e+06,-58.0625
1.2684e+06,-61.0719
1.2687e+06,-64.0812
1.2689e+06,-64.0812
1.2692e+06,-64.0812
1.2694e+06,-64.0812
1.2697e+06,-64.0812
1.2700e+06,-64.0812
1.2702e+06,-64.0812
1.2705e+06,-64.0812
1.2708e+06,-64.0812
1.2710e+06,-60.5875
1.2713e+06,-57.0938
1.2715e+06,-60.5875
1.2718e+06,-64.0812
1.2721e+06,-60.5875
1.2723e+06,-57.0938
1.2726e+06,-60.5875
1.2728e+06,-64.0812
1.2731e+06,-64.0812
1.2734e+06,-64.0812
1.2736e+06,-64.0812
1.2739e+06,-64.0812
1.2741e+06,-64.0812
1.2744e+06,-64.0812
1.2747e+06,-64.0812
1.2749e+06,-64.0812
1.2752e+06,-64.0812
1.2754e+06,-64.0812
1.2757e+06,-62.5781
1.2760e+06,-61.0719
1.2762e+06,-62.5781
1.2765e+06,-64.0812
1.2767e+06,-64.0812
1.2770e+06,-64.0812
1.2773e+06,-62.5781
1.2775e+06,-61.0719
1.2778e+06,-62.5781
1.2780e+06,-64.0812
1.2783e+06,-64.0812
1.2786e+06,-64.0812
1.2788e+06,-64.0812
1.2791e+06,-64.0812
1.2793e+06,-64.0812
1.2796e+06,-64.0812
1.2799e+06,-64.0812
1.2801e+06,-64.0812
1.2804e+06,-62.5781
1.2806e+06,-61.0719
1.2809e+06,-61.0719
1.2812e+06,-61.0719
1.2814e+06,-62.5781
1.2817e+06,-64.0812
1.2819e+06,-60.5875
1.2822e+06,-57.0938
1.2825e+06,-60.5875
1.2827e+06,-64.0812
1.2830e+06,-62.5781
1.2833e+06,-61.0719
1.2835e+06,-62.5781
1.2838e+06,-64.0812
1.2840e+06,-64.0812
1.2843e+06,-64.0812
1.2846e+06,-64.0812
1.2848e+06,-64.0812
1.2851e+06,-64.0812
1.2853e+06,-64.0812
1.2856e+06,-64.0812
1.2859e+06,-64.0812
1.2861e+06,-64.0812
1.2864e+06,-64.0812
1.2866e+06,-64.0812
1.2869e+06,-64.0812
1.2872e+06,-64.0812
1.2874e+06,-64.0812
1.2877e+06,-64.0812
1.2879e+06,-64.0812
1.2882e+06,-60.5875
1.2885e+06,-57.0938
1.2887e+06,-60.5875
1.2890e+06,-64.0812
1.2892e+06,-64.0812
1.2895e+06,-64.0812
1.2898e+06,-64.0812
1.2900e+06,-64.0812
1.2903e+06,-60.5875
1.2905e+06,-57.0938
1.2908e+06,-59.0844
1.2911e+06,-61.0719
1.2913e+06,-59.5688
1.2916e+06,-58.0625
1.2918e+06,-61.0719
1.2921e+06,-64.0812
1.2924e+06,-64.0812
1.2926e+06,-64.0812
1.2929e+06,-64.0812
1.2931e+06,-64.0812
1.2934e+06,-62.5781
1.2937e+06,-61.0719
1.2939e+06,-62.5781
1.2942e+06,-64.0812
1.2944e+06,-64.0812
1.2947e+06,-64.0812
1.2950e+06,-64.0812
1.2952e+06,-64.0812
1.2955e+06,-64.0812
1.2958e+06,-64.0812
1.2960e+06,-62.5781
1.2963e+06,-61.0719
1.2965e+06,-62.5781
1.2968e+06,-64.0812
1.2971e+06,-64.0812
1.2973e+06,-64.0812
1.2976e+06,-64.0812
1.2978e+06,-64.0812
1.2981e+06,-64.0812
1.2984e+06,-64.0812
1.2986e+06,-64.0812
1.2989e+06,-64.0812
1.2991e+06,-60.5875
1.2994e+06,-57.0938
1.2997e+06,-60.5875
1.2999e+06,-64.0812
1.3002e+06,-62.5781
1.3004e+06,-61.0719
1.3007e+06,-62.5781
1.3010e+06,-64.0812
1.3012e+06,-62.5781
1.3015e+06,-61.0719
1.3017e+06,-61.0719

